File: Battery Data/RAW/A123_01.csv
,Test_Time(s),Current(A),Voltage(V),Charge_Capacity(Ah),Discharge_Capacity(Ah),Charge_Energy(Wh),Discharge_Energy(Wh),dV/dt(V/s),Temperature (C)_1
1,8.06527,-1.09918,2.46847,0.0,0.001528987,0.0,0.00383082,-0.007017279,1.25617
218,1092.67,1.09994,3.58108,0.287506,0.008765985,1.00477,0.0203669,0.0,1.3491
411,2058.42,1.00809,3.60016,0.577141,0.008765985,2.04594,0.0203669,0.0,1.41106
604,3024.36,0.642385,3.60016,0.806328,0.008765985,2.87105,0.0203669,0.0,1.32787
797,3990.37,0.206053,3.60016,0.910466,0.008765985,3.24597,0.0203669,-6.1512e-05,0.739242
990,4956.33,0.0922278,3.60047,0.947028,0.008765985,3.37759,0.0203669,0.0,0.104898
1183,5922.25,0.0552251,3.60016,0.966072,0.008765985,3.44615,0.0203669,6.15597e-05,-0.0125827
1400,6246.12,0.000190588,3.34963,0.969486,0.0312106,3.45802,0.0934652,-0.017851,-0.217177
1594,6439.32,-0.480845,3.22467,0.975906,0.0698322,3.48107,0.204418,-0.000307751,-0.0747605
1787,6633.26,-0.480657,3.21328,0.979157,0.0930613,3.49211,0.278154,-0.000123119,-0.16805
1981,6826.43,-0.96188,3.11018,0.985571,0.134152,3.51505,0.396234,-0.000861788,0.139097
2174,7020.39,-3.84922,2.5531,0.988778,0.158041,3.5259,0.471115,-0.129266,0.355956
2368,7213.58,0.000190588,3.29454,0.996254,0.196894,3.55236,0.582148,0.000123119,0.490478
2561,7407.52,-2.40593,2.74854,0.998395,0.238624,3.55958,0.703427,-0.000615549,0.321714
2755,7600.72,-0.480845,3.18189,1.00589,0.259868,3.58601,0.76824,-0.000184631,0.797989
2948,7794.73,-0.962256,3.03908,1.01017,0.305767,3.6005,0.900271,-0.000123119,0.649532
3142,7987.91,-0.480657,3.17266,1.01658,0.324292,3.62314,0.95774,-0.0374255,1.04577
3335,8181.9,1.92527,3.62386,1.02388,0.371084,3.64876,1.09174,0.001477289,0.352693
3529,8375,-0.480845,3.15912,1.02622,0.388138,3.65664,1.14507,0.0,1.01479
3722,8568.94,0.000190588,3.25329,1.03368,0.431493,3.68282,1.26781,0.000184679,0.197813
3916,8762.15,-0.962068,3.04862,1.03581,0.453368,3.68996,1.33599,-0.000307751,0.476616
4110,8955.31,0.000190588,3.2576,1.0433,0.491887,3.71619,1.44344,0.000246191,0.166839
4303,9149.27,-0.478215,3.1785,1.04651,0.514327,3.7269,1.51324,-0.0149579,0.621774
4497,9342.43,-0.480845,3.1508,1.05294,0.554945,3.74957,1.62709,-6.15597e-05,0.366558
4690,9536.42,-0.480657,3.14465,1.05614,0.578183,3.76025,1.69926,-0.000123119,0.631547
4884,9729.59,0.481226,3.33609,1.06337,0.619614,3.78554,1.81497,0.001046419,0.748936
5077,9923.62,-2.40574,2.69191,1.06573,0.654036,3.7934,1.91404,-0.000738668,0.476616
5271,10116.7,-0.480845,3.14003,1.07321,0.681148,3.81949,1.99277,-0.000184631,0.85575
5464,10310.7,-0.962068,2.98768,1.0775,0.725503,3.83378,2.11764,-0.0774979,0.507602
5658,10503.9,-0.96188,3.01446,1.08285,0.7464,3.85266,2.1812,-0.00043087,0.956064
5851,10697.8,-0.962068,2.96275,1.08713,0.792873,3.86687,2.31119,-0.000123119,0.44238
6045,10891,-0.480657,3.10618,1.09355,0.80939,3.8892,2.36181,-0.000123119,1.0384
6238,11085,0.000190588,3.19266,1.10104,0.854173,3.91501,2.4855,0.000184631,0.521458
6432,11278.1,-0.480845,3.08156,1.10318,0.873243,3.92203,2.54384,-6.15597e-05,1.0384
6625,11471.3,0.000378419,3.1862,1.11066,0.914565,3.94766,2.65558,0.000184631,0.600558
6819,11665.3,0.000190588,3.16896,1.11386,0.937007,3.9581,2.72344,0.000184679,1.14195
7013,11858.5,-0.481033,3.0594,1.12028,0.976189,3.98005,2.82707,-0.000615549,0.666626
7206,12052.5,-0.480657,3.02554,1.12349,0.999439,3.99039,2.89656,-0.00049243,1.27975
7400,12245.6,-0.962068,2.86119,1.12991,1.04105,4.01183,3.00397,-0.001908207,1.32135
7593,12439.6,-3.84922,2.08744,1.13312,1.06817,4.02195,3.07887,-0.0130497,1.16646
7787,12632.7,0.000190588,2.95198,1.14059,1.10271,4.04542,3.16256,0.000615549,1.92482
7981,13245.6,1.09994,3.46566,1.1886,1.12306,4.2062,3.21726,0.00043087,0.538585
8174,14211.5,1.10013,3.58046,1.48374,1.12306,5.2527,3.21726,0.0,1.10451
8367,15173.4,1.03138,3.60016,1.7746,1.12306,6.29779,3.21726,0.0,1.3491
8560,16139.4,0.530813,3.60016,2.00118,1.12306,7.11351,3.21726,-6.1512e-05,1.09063
8753,17105.2,0.112889,3.60016,2.06964,1.12306,7.35997,3.21726,0.0,0.0429594
8970,18133.7,-2.04003,3.08463,2.08892,1.12423,7.42936,3.22095,-0.0744817,-0.029747
9163,18327.7,-0.681448,3.17666,2.09274,1.16055,7.44252,3.33165,-0.000430918,-0.0779938
9356,18521.6,-0.410596,3.20436,2.09421,1.1978,7.44747,3.44597,0.0399493,-0.0812081
9549,18715.5,0.000190588,3.30285,2.09955,1.22172,7.46551,3.5182,-0.007078839,0.0365877
9743,18908.5,-2.34056,2.8381,2.10336,1.2544,7.47833,3.61524,-0.0644482,0.277942
9936,19102.5,-0.818941,3.10464,2.10483,1.2931,7.48324,3.73302,0.0142192,0.460547
10129,19296.5,-3.55245,2.59527,2.1088,1.31696,7.49657,3.80595,-0.0727582,0.0878086
10323,19489.5,0.249818,3.30623,2.11375,1.35132,7.51316,3.90623,0.0377948,0.418861
10516,19683.4,0.105564,3.26899,2.11543,1.38772,7.51879,4.0162,0.0221599,0.674123
10709,19877.4,0.426004,3.34132,2.11905,1.41289,7.53087,4.09322,0.0855617,0.519313
10903,20070.4,-1.11139,3.02123,2.1243,1.44541,7.54838,4.18665,0.0261609,0.426441
11096,20264.4,0.152334,3.2573,2.12535,1.48405,7.55183,4.30274,0.0208056,0.457397
11289,20458.3,-1.27744,3.00584,2.1292,1.50804,7.56466,4.37607,-0.032932,0.567334
11483,20651.3,0.008642986,3.25822,2.13493,1.53858,7.58372,4.46419,-0.005170631,0.519313
11676,20845.3,-1.70982,2.8775,2.13574,1.57688,7.58639,4.57833,-0.0220983,0.395488
11869,21039.3,0.134114,3.27976,2.1394,1.60437,7.59855,4.6612,-0.002769947,0.409403
12063,21233.2,0.266911,3.28407,2.144,1.63734,7.61379,4.75635,-0.001846647,0.392369
12256,21427.2,0.566126,3.31146,2.14626,1.6714,7.62129,4.85743,0.139238,0.256535
12449,21621.2,0.000190588,3.24714,2.14964,1.70112,7.6325,4.9466,-0.001354218,0.53135
12643,21815.2,-2.02256,2.80363,2.15379,1.73179,7.64624,5.03521,-0.0207441,0.824169
12836,22009.1,-0.744935,3.06401,2.1568,1.76377,7.65611,5.12965,-0.0183434,0.46276
13029,22203.1,0.521234,3.3207,2.15879,1.79979,7.66268,5.23629,0.00541687,0.256535
13223,22397,-0.456802,3.09664,2.16432,1.82743,7.68095,5.31547,0.036256,0.797989
13416,22591,-0.465443,3.10002,2.16743,1.85989,7.69111,5.41029,0.0148963,0.519313
13609,22785,-0.457554,3.08894,2.16899,1.89672,7.69621,5.51852,0.0141577,0.519313
13803,22979,-1.15197,2.97845,2.17496,1.91817,7.71577,5.57973,-0.0449968,0.670964
13996,23173,-0.0199073,3.14988,2.17803,1.95627,7.72573,5.68892,-0.00166197,0.578089
14189,23366.9,-0.351054,3.06586,2.17935,1.99347,7.72997,5.79668,0.0127419,0.698787
14383,23560.9,0.0120239,3.13603,2.18478,2.01683,7.74757,5.86266,-0.004124212,0.650795
14576,23754.9,-1.05129,2.88858,2.18854,2.05209,7.75963,5.96116,-0.0310853,0.487228
14769,23948.9,-0.002439047,3.01384,2.1899,2.08996,7.76387,6.0675,0.0475206,0.986005
14963,24142.8,-2.03853,2.65806,2.19518,2.11093,7.7805,6.12485,-0.0839612,1.31382
15156,24336.8,-0.306538,2.74854,2.19898,2.14779,7.79213,6.22095,0.002462244,1.05967
15350,25221.2,1.09975,3.54106,2.3491,2.16395,8.31487,6.26314,0.000123119,1.20835
15543,26186.5,1.09975,3.59062,2.64399,2.16395,9.3686,6.26314,6.1512e-05,1.46921
15736,27151,0.930894,3.60047,2.92411,2.16395,10.3767,6.26314,6.1512e-05,1.74404
15929,28116.3,0.264845,3.60016,3.09168,2.16395,10.9799,6.26314,0.0,1.03858
16122,29081.6,0.0734447,3.60047,3.12831,2.16395,11.1119,6.26314,0.0,0.560724
16339,29705.4,-0.803351,3.17543,3.13687,2.18329,11.1426,6.3238,0.014527,0.0636414
16532,29899.1,0.881682,3.44535,3.14255,2.24258,11.1627,6.491,0.00547838,0.213909
16725,30092.8,1.03251,3.50105,3.15564,2.27839,11.2088,6.59418,-0.008617735,0.293832
16918,30286.4,-0.443091,3.22344,3.16051,2.30075,11.2259,6.66277,-0.0166814,0.297952
17111,30480.1,0.0781405,3.29854,3.16558,2.33608,11.2433,6.76995,0.0134806,0.908698
17304,30673.7,1.05693,3.49582,3.17112,2.36008,11.2623,6.84268,0.0285,1.04686
17497,30867.4,-0.730472,3.12741,3.17515,2.38351,11.2762,6.91323,0.0645714,1.00219
17691,31060.4,-1.04284,3.06032,3.17996,2.41001,11.2929,6.99279,-0.0281307,0.837031
17884,31254.1,0.638441,3.34563,3.18481,2.46997,11.3099,7.15909,0.008863926,1.03754
18077,31447.8,-0.784755,3.0874,3.19601,2.50726,11.3488,7.26504,-0.006524849,0.872386
18270,31641.5,2.75712e-06,3.26776,3.20378,2.53084,11.3758,7.33647,-0.0285616,0.510933
18463,31835.2,-0.720517,3.11018,3.20877,2.56319,11.3928,7.43307,-0.0407495,1.22457
18656,32028.8,-1.46132,2.95321,3.21298,2.58779,11.4071,7.50683,0.0197592,1.43859
18849,32222.4,-0.219384,3.21944,3.21842,2.60911,11.4256,7.5705,-0.006524849,1.28693
19043,32415.3,-0.86233,3.07386,3.2232,2.63603,11.4421,7.65001,-0.0343478,1.16643
19236,32608.8,-0.823073,3.028,3.22745,2.69224,11.457,7.80593,0.00775595,0.666802
19429,32802.5,-1.43258,2.92182,3.23925,2.73468,11.4977,7.92322,0.0375486,0.559801
19622,32996.1,-1.69066,2.89781,3.24545,2.75886,11.5192,7.99604,-0.003754854,0.56403
19815,33189.7,-1.12041,2.99938,3.25153,2.79092,11.5399,8.09096,0.0143424,0.715684
20008,33383.3,2.75712e-06,3.24991,3.25624,2.8131,11.5558,8.1577,0.000123119,1.50519
20201,33576.8,0.000190588,3.24252,3.26167,2.83913,11.5742,8.23436,-0.0259763,1.11255
20395,33770.3,-2.02651,2.81379,3.26639,2.86332,11.5904,8.30497,-0.0159428,0.885052
20588,33964,-0.209805,3.11079,3.27071,2.91782,11.6054,8.45435,0.0254223,0.826946
20781,34157.7,0.000190588,3.21944,3.28252,2.95437,11.6458,8.55548,0.000184679,0.813488
20974,34351.3,2.75712e-06,3.22098,3.28872,2.9843,11.6671,8.6415,0.000184679,0.737661
21167,34545,0.263154,3.2416,3.29367,3.01795,11.6838,8.73942,0.0168661,0.800033
21360,34738.8,2.75712e-06,3.20497,3.29951,3.0432,11.7033,8.81416,6.15597e-05,1.71004
21553,34932.3,-0.609321,3.05016,3.30411,3.06831,11.7187,8.8866,-0.025053,1.71004
21747,35125.2,-0.442903,3.10095,3.30892,3.08899,11.7349,8.94611,-0.0597085,1.13454
21940,35318.7,-2.21659,2.58819,3.31392,3.14019,11.752,9.08247,-0.0357636,0.907048
22133,35512.4,2.75712e-06,3.1388,3.32578,3.18445,11.7916,9.20002,-0.0342862,0.938238
22326,35706.1,2.75712e-06,3.12311,3.33198,3.21435,11.8124,9.28248,0.0,0.969428
22519,35899.8,0.135992,3.01292,3.33656,3.24701,11.8274,9.37246,0.0249299,1.04956
22712,36093.5,0.360451,3.03693,3.34157,3.2733,11.8432,9.44538,0.0397646,2.11127
22905,36287.2,-0.789451,2.7467,3.34734,3.29507,11.8613,9.50253,-0.00332398,2.14247
23099,36480.2,-1.47579,2.58173,3.35148,3.31503,11.874,9.55381,-0.0657409,2.06663
23246,36626.1,-0.00131206,2.54233,3.35578,3.33659,11.8868,9.60563,0.0,1.83911