File: Battery Data/RAW/A123_07.csv
,Test_Time(s),Current(A),Voltage(V),Charge_Capacity(Ah),Discharge_Capacity(Ah),Charge_Energy(Wh),Discharge_Energy(Wh),dV/dt(V/s),Temperature (C)_1
1,8.01086,-1.09978,3.11079,0.0,0.001528765,0.0,0.004761715,-0.000738668,20.4023
214,1074.18,-1.09978,2.94706,0.0,0.327254,0.0,0.990064,-0.000184679,20.5219
451,2259.64,1.0996,3.50535,0.2339,0.418792,0.795219,1.24352,0.0,20.0675
664,3325.86,1.0996,3.55583,0.559555,0.418792,1.94704,1.24352,0.0,20.2455
877,4387.3,0.998902,3.60076,0.881181,0.418792,3.09875,1.24352,-6.1512e-05,20.5125
1090,5453.48,0.135791,3.60107,1.01834,0.418792,3.59268,1.24352,0.0,20.129
1327,6473.92,-0.412608,3.41456,1.0388,0.421436,3.66634,1.25262,-0.00086174,20.0675
1540,6687.33,-2.06214,2.96768,1.04154,0.452064,3.67591,1.34928,-0.000677109,19.8832
1754,6900.1,-0.824945,3.19635,1.04795,0.4793553,3.69863,1.43418,-0.014219,19.7465
1967,7113.58,1.64998,3.61123,1.05422,0.522387,3.72056,1.56532,0.001354218,19.7603
2181,7326.19,-0.824945,3.18158,1.05709,0.539197,3.73056,1.61965,-0.0144036,20.04
2395,7538.89,-0.412608,3.25791,1.06351,0.574742,3.75318,1.72634,-0.000246191,19.6702
2608,7752.33,-0.412608,3.25052,1.06625,0.596914,3.76247,1.79784,0.0,20.1766
2822,7965.13,-0.412608,3.25267,1.07267,0.632648,3.78506,1.90495,-0.000184631,19.9923
3035,8178.6,-0.824945,3.15111,1.07633,0.674966,3.79753,2.03334,6.15597e-05,20.0675
3249,8391.18,-0.412608,3.24252,1.08182,0.692378,3.81687,2.08919,0.0,19.862
3463,8603.89,-0.000270769,3.31454,1.08822,0.729598,3.83934,2.20072,0.000123119,19.6872
3676,8817.33,-0.412788,3.23452,1.09097,0.750283,3.8486,2.26705,-0.000184631,19.5917
3890,9030.02,-0.000451223,3.29853,1.09737,0.787373,3.87099,2.37779,0.0,20.1152
4103,9243.47,-0.825126,3.12864,1.10103,0.826215,3.88337,2.49432,-0.0568144,19.8143
4317,9456.15,-0.412608,3.2142,1.10652,0.845719,3.90258,2.55602,-0.000123119,19.7698
4530,9669.57,-0.000270769,3.28776,1.11294,0.884989,3.92496,2.6732,6.15597e-05,19.9785
4744,9882.33,-0.000270769,3.28499,1.11569,0.904251,3.93416,2.73443,0.000123119,19.8111
4958,10095,-0.825126,3.13387,1.12119,0.941409,3.95345,2.84479,-0.000246191,19.8387
5171,10308.5,-2.06214,2.88489,1.12393,0.976438,3.96263,2.95002,-0.00036931,19.8111
5385,10521.2,-0.825126,3.12864,1.13034,0.999925,3.98491,3.02271,-0.000246191,19.4857
5598,10734.6,-0.000270769,3.27668,1.13766,1.04042,4.01024,3.14338,6.15597e-05,19.9754
5812,10947.3,0.412247,3.337,1.13952,1.05968,4.01648,3.20449,0.0425955,19.6544
6026,11160,-0.412608,3.20343,1.14589,1.09406,4.03861,3.30566,-0.000123119,19.8048
6239,11373.415,-3.29915,2.6756,1.14864,1.12061,4.04779,3.38743,-0.00172348,19.7772
6453,11586.1,-0.412788,3.19789,1.15507,1.15194,4.07008,3.48105,-0.000123072,19.8218
6666,11799.5,-0.825306,3.09479,1.15873,1.19548,4.08235,3.61075,-6.15597e-05,19.7296
6880,12012.3,-0.412608,3.18681,1.16421,1.21168,4.10139,3.66199,0.0,19.8494
7094,12225,-0.000270769,3.26191,1.17061,1.24763,4.1235,3.76733,6.15597e-05,19.9998
7307,12438.4,-0.412608,3.17665,1.17336,1.26957,4.13263,3.83648,-0.000123072,20.0506
7521,12651.1,-0.000270769,3.24806,1.17977,1.30539,4.15469,3.94098,0.000246239,20.1227
7734,12864.6,-0.825126,3.06493,1.18344,1.34676,4.16689,4.0629,-6.15597e-05,19.8801
7948,13077.2,-0.412608,3.15388,1.18893,1.365,4.18579,4.11969,-0.000123119,19.877
8161,13290.7,-0.000270769,3.22467,1.19533,1.40304,4.20766,4.2302,0.0,19.8156
8375,13503.4,-0.412427,3.14095,1.19807,1.42291,4.21667,4.29201,-0.000184679,19.7234
8589,13716.1,0.412247,3.27022,1.20415,1.46079,4.23738,4.40129,0.00080018,19.8463
8802,13929.6,0.824945,3.28468,1.2069,1.4993,4.24635,4.51229,0.104642,19.986
9016,14142.2,-0.412608,3.10402,1.21363,1.51835,4.26906,4.57029,-0.0292998,19.9691
9229,14355.6,-0.000451223,3.1625,1.22004,1.55844,4.29053,4.68448,0.000184679,19.9967
9443,14568.4,-0.000451223,3.12803,1.22278,1.5777,4.29934,4.74297,0.0,19.9046
9657,14781.1,-0.412608,2.92951,1.22826,1.61334,4.31707,4.83956,-0.00049243,19.8432
9870,14994.5,-2.06214,2.23703,1.23101,1.64579,4.32539,4.92432,-0.00695562,19.8801
10084,16311.7,1.0996,3.52782,1.53834,1.65206,5.38119,4.93773,0.000123119,19.9384
10297,17377.9,1.0996,3.55891,1.86399,1.65206,6.53463,4.93773,0.000123072,20.2286
10510,18440.5,0.822058,3.60107,2.17942,1.65206,7.66502,4.93773,0.0,20.2211
10723,19505.8,0.0805726,3.60076,2.26321,1.65206,7.96674,4.93773,-6.1512e-05,19.7879
10960,20030.1,-0.762869,3.20651,2.27175,1.68553,7.99699,5.04059,-0.001538849,20.0982
11173,20243.8,-0.64792,3.2062,2.2737,1.72939,8.00363,5.17673,-0.0119415,20.023
11386,20457.6,0.372908,3.3884,2.27938,1.76048,8.02297,5.27207,-0.01163373,19.8832
11600,20671.2,-0.619769,3.20374,2.28374,1.80081,8.03776,5.39366,0.0175429,20.1904
11813,20885,0.177476,3.33239,2.28538,1.84646,8.0433,5.53478,0.0584764,19.8757
12027,21098.6,-0.709455,3.1902,2.29145,1.87431,8.06391,5.61905,-0.0291767,20.1936
12240,21312.3,-0.330501,3.24313,2.2957,1.91642,8.07825,5.74648,-0.0119415,19.8801
12453,21526,-0.502293,3.20866,2.29743,1.95944,8.08411,5.87883,0.0135419,19.791
12667,21738.7,-0.501391,3.19266,2.30398,1.99165,8.10622,5.97472,0.0336085,19.7465
12880,21952.4,-0.817727,3.13941,2.30739,2.0302,8.11764,6.09172,-0.0107719,19.9616
13093,22166,-0.000270769,3.29115,2.31119,2.06968,8.13046,6.212,6.15597e-05,19.6193
13307,22378.9,0.341509,3.33239,2.31671,2.1081,8.14894,6.32515,0.000861788,19.6872
13520,22592.6,-2.79983,2.77163,2.31924,2.15109,8.15739,6.455,-0.0216671,19.8069
13733,22806.3,-1.78189,2.96768,2.32372,2.18344,8.17241,6.5543,-0.0278841,19.8525
13947,23019.1,-1.50237,2.99815,2.33,2.22289,8.19342,6.66901,0.0147114,19.8218
14160,23232.7,0.0486322,3.26683,2.33194,2.26775,8.19991,6.8051,0.0197589,19.9277
14373,23446.4,-3.89771,2.58481,2.3363,2.29836,8.21449,6.89853,-0.072757,20.0537
14587,23659.2,-2.56759,2.81379,2.34198,2.33799,8.23345,7.01428,-0.0637701,19.9384
14800,23872.9,-0.450503,3.16373,2.34359,2.38431,8.23881,7.15444,0.0393331,19.8801
15014,24086.6,-2.23916,2.86488,2.34944,2.41195,8.25831,7.23665,-0.0640779,20.1227
15227,24300.4,-0.438052,3.15603,2.3538,2.45553,8.27275,7.36526,-0.0181585,20.129
15440,24514.1,-0.909397,3.06801,2.35539,2.49935,8.27799,7.49695,-0.0251757,20.1396
15654,24727.7,-1.50526,2.9686,2.36222,2.52606,8.3006,7.57517,-0.009356213,20.0475
15867,24941.6,-1.42008,2.95937,2.36562,2.57007,8.31177,7.70453,-0.0281302,20.1735
16080,25155.2,0.53261,3.2973,2.36819,2.61179,8.32019,7.82841,0.0186509,20.092
16294,25368.9,-2.41637,2.72885,2.37399,2.64873,8.33921,7.93369,0.001046419,20.0613
16507,25582.7,-0.604791,3.03385,2.37746,2.68862,8.35044,8.04989,-0.005109024,20.1227
16720,25796.5,-1.371,2.90274,2.38151,2.72415,8.36353,8.1539,0.002400637,20.0305
16934,26010,-0.000270769,3.08925,2.38824,2.75864,8.38494,8.24881,6.1512e-05,20.0305
17147,26223.7,-0.911924,2.54419,2.39015,2.80716,8.39045,8.37684,-0.044319,19.7603
17361,27379.2,1.0996,3.51059,2.63615,2.81739,9.2293,8.40109,6.15597e-05,20.0613
17574,28444.6,1.09942,3.54967,2.96157,2.81739,10.3796,8.40109,0.0,20.7826
17787,29505.3,1.06405,3.60107,3.28526,2.81739,11.5365,8.40109,0.0,20.0305
18000,30570.4,0.10349,3.60107,3.42133,2.81739,12.0265,8.40109,0.0,19.8494
18237,31291.1,-0.176755,3.34347,3.43309,2.836,12.0688,8.46088,0.0371787,19.9108
18450,31504.7,0.784162,3.47581,3.44278,2.8924,12.103,8.62632,0.0217902,20.0675
18663,31718.5,-0.0746178,3.30869,3.45129,2.93296,12.1331,8.748,-0.003816366,19.8801
18876,31932.4,0.927984,3.48135,3.45747,2.95981,12.1547,8.8315,0.0115722,19.8048
19089,32146.1,-1.12305,3.12095,3.46253,2.99135,12.1721,8.92987,0.000246239,20.0813
19302,32359.9,0.659108,3.43549,3.46859,3.01667,12.193,9.00775,-0.0148961,20.0613
19516,32572.8,-1.40601,3.08432,3.4727,3.03715,12.2073,9.07121,-0.0487509,20.0305
19729,32786.5,-1.89828,2.94275,3.47814,3.09109,12.2264,9.22971,0.006770945,19.8048
19942,33000.3,-1.68463,3.01969,3.48944,3.13278,12.2658,9.35315,-0.0264067,19.791
20155,33214,-0.380668,3.22805,3.49534,3.16642,12.2865,9.45539,0.0161272,19.7296
20368,33427.7,-1.09978,3.09787,3.5016,3.1997,12.3079,9.55787,-0.00172353,19.8048
20581,33641.4,-0.208875,3.25852,3.5073,3.22359,12.3274,9.63139,-0.005355215,19.8832
20794,33855.2,1.7541,3.58199,3.51142,3.25136,12.3415,9.7163,0.0811284,19.8801
21008,34068.2,-0.000451223,3.29084,3.51799,3.27445,12.3644,9.78683,0.0,19.8801
21221,34281.8,-2.88609,2.77009,3.52546,3.33724,12.39,9.96713,-0.0312695,19.7603
21434,34495.5,-2.07008,2.92028,3.53491,3.37322,12.423,10.0737,-0.0267761,19.8663
21647,34709.1,-0.268967,3.21728,3.5408,3.40543,12.4432,10.1719,0.0300384,19.8048
21860,34922.9,-1.14128,3.07694,3.54558,3.43421,12.4594,10.2607,-0.0401333,19.9553
22073,35136.6,-1.21148,3.05909,3.55116,3.45864,12.4784,10.3348,0.00406256,19.9754
22287,35349.8,0.380126,3.34039,3.5564,3.4819,12.4964,10.4053,-0.004001,19.9139
22500,35563.6,-0.334471,3.17942,3.56058,3.53926,12.511,10.5712,-0.008063602,19.7465
22713,35777.3,-0.227462,3.20989,3.57182,3.58274,12.5497,10.6967,0.0123724,20.023
22926,35991.1,-0.575919,3.17081,3.57922,3.60549,12.5752,10.7666,-0.0200666,19.808
23139,36204.8,0.0181355,3.25944,3.58417,3.64078,12.5919,10.8741,0.008617545,20.0613
23352,36418.5,-0.928165,3.08371,3.58969,3.66761,12.6107,10.9553,0.00744805,20.0613
23565,36632.2,-0.000270769,3.25821,3.59545,3.68974,12.6303,11.0221,6.15597e-05,20.1565
23779,36845.4,0.0693844,3.24744,3.60053,3.7185,12.6477,11.1079,-0.004678106,20.0167
23992,37059.2,1.24793,3.44811,3.61009,3.78225,12.6803,11.2885,-0.00818672,20.1227
24205,37273,-0.297117,3.16465,3.61737,3.81598,12.7052,11.3868,0.0136034,20.0305
24418,37486.8,0.129476,3.2219,3.62333,3.84932,12.7253,11.4859,0.00043087,19.9077
24631,37700.6,-0.000270769,3.21236,3.62918,3.87428,12.7448,11.5614,6.15597e-05,20.27
24844,37914.4,-0.000451223,3.20128,3.63436,3.89907,12.762,11.6347,6.15597e-05,20.181
25058,38128.1,-1.09057,2.97506,3.63892,3.9273,12.7773,11.7177,0.006340074,20.1841
25271,38341.7,-1.06711,2.92428,3.64371,3.98839,12.7934,11.8857,-0.006093836,19.9246
25484,38555.4,-0.612551,3.01292,3.65725,4.02294,12.8385,11.9813,-0.00984869,19.9246
25697,38769.2,-0.000631677,3.04493,3.66273,4.04892,12.8563,12.0558,0.000123119,19.6989
25910,38982.9,0.0693844,2.83872,3.66702,4.08273,12.8694,12.1477,0.0205591,19.791
26097,39169.1,-0.000631677,2.15578,3.67209,4.10678,12.884,12.2058,0.0,19.7603