File: Battery Data/RAW/A123_10.csv
,Test_Time(s),Current(A),Voltage(V),Charge_Capacity(Ah),Discharge_Capacity(Ah),Charge_Energy(Wh),Discharge_Energy(Wh),dV/dt(V/s),Temperature (C)_1
1,8.01394,-1.0996,2.51064,0.0,0.001529298,0.0,0.003876435,-0.004985857,26.6308
230,1151.14,1.09942,3.55891,0.305706,0.008314671,1.0576,0.0198602,6.15597e-05,27.2385
435,2177.16,1.0996,3.5863,0.619085,0.008314671,2.17745,0.0198602,6.15597e-05,27.6871
640,3201.24,0.879081,3.60138,0.913189,0.008314671,3.23587,0.0198602,0.0,27.5174
845,4227.2,0.13904,3.60138,1.03396,0.008314671,3.67077,0.0198602,6.15597e-05,27.0992
1074,5255.98,-0.481361,3.41764,1.05522,0.009667693,3.74735,0.0245063,-0.001538849,27.0551
1279,5462.07,-0.481541,3.27545,1.05843,0.0345434,3.7586,0.106228,-0.000246239,27.0415
1485,5667.2,-0.000270769,3.34408,1.0659,0.0757012,3.78561,0.226313,6.15597e-05,26.9872
1690,5873.24,-0.96227,3.12372,1.07017,0.12125,3.80039,0.360684,-0.0757732,26.8852
1896,6078.43,-0.481541,3.23575,1.07659,0.14288,3.82356,0.429157,-0.0380404,27.0551
2101,6284.4,-0.000451223,3.32962,1.08408,0.18959,3.8505,0.566391,6.15597e-05,27.0211
2307,6489.75,-0.96227,3.12803,1.08621,0.211209,3.85781,0.635386,-0.000184679,26.8988
2513,6694.98,-0.481541,3.23328,1.09369,0.250708,3.88468,0.749346,-0.000246239,27.0992
2718,6900.99,-0.4811804,3.22559,1.0969,0.275573,3.89562,0.828647,0.0,26.9328
2924,7106.25,-0.000270769,3.31977,1.10438,0.317416,3.92244,0.949722,0.000123119,27.0178
3129,7312.28,0.962812,3.46811,1.10794,0.36234,3.93463,1.08116,0.0015389,27.0245
3335,7517.48,0.481,3.39425,1.11475,0.384252,3.95898,1.14989,0.000615501,27.0415
3540,7723.46,-0.000451223,3.29545,1.12254,0.431315,3.9867,1.2869,0.0,26.9872
3746,7928.72,-0.96209,3.09602,1.12468,0.45158,3.99393,1.35095,-0.000307751,26.841
3952,8134.01,-0.481361,3.20097,1.13216,0.491758,4.02053,1.46574,-0.0185278,26.9225
4157,8339.91,-0.481361,3.1905,1.13536,0.51662,4.03133,1.54415,0.0,26.9633
4363,8545.26,-0.000270769,3.28591,1.14285,0.559102,4.05794,1.66604,-0.0187125,26.8819
4568,8751.25,0.962812,3.42718,1.14507,0.604015,4.06544,1.79616,0.131541,26.9055
4774,8956.46,0.481,3.36778,1.15252,0.625945,4.09192,1.86446,0.0564451,27.0584
4979,9162.49,-0.000451223,3.28068,1.16101,0.67298,4.12186,2.00044,-0.0754654,26.9125
5185,9367.68,-0.481361,3.17973,1.16315,0.692071,4.12905,2.0606,0.0,26.8104
5391,9573.01,-0.000270769,3.28222,1.17062,0.733423,4.15555,2.17824,0.000184679,27.072
5596,9778.96,-0.481361,3.17881,1.17383,0.757623,4.16633,2.25422,-6.15597e-05,26.8852
5802,9984.28,0.481,3.36162,1.18096,0.800792,4.19161,2.37737,0.000677109,27.062
6007,10190.2,-2.40572,2.73931,1.18346,0.842532,4.2,2.49772,-0.000369358,27.0856
6213,10395.5,-0.96227,3.05847,1.19094,0.866438,4.22639,2.57044,-0.00036931,27.2079
6418,10601.5,1.92481,3.62015,1.19815,0.914685,4.25141,2.70856,0.00172353,27.344
6624,10806.8,-0.481361,3.14003,1.20163,0.933103,4.26338,2.76588,-6.15597e-05,27.0789
6830,11012,-0.000451223,3.23821,1.20911,0.975117,4.28959,2.88387,0.000123072,27.2793
7035,11218.1,-0.481361,3.12833,1.21232,0.998659,4.30022,2.95662,-0.000246191,27.2046
7241,11423.3,0.480819,3.29238,1.21878,1.04247,4.32287,3.07944,0.0558912,27.157
7446,11629.3,-2.40572,2.67222,1.22195,1.08091,4.33333,3.18829,-0.000553989,26.9769
7652,11834.5,-0.96227,2.99076,1.22943,1.10676,4.35919,3.26411,-0.019328,27.2454
7857,12040.5,1.92481,3.5072,1.23395,1.15637,4.37411,3.40236,0.113383,27.4221
8063,12245.7,-0.481361,3.04,1.2401,1.17408,4.39523,3.45595,-0.000246239,27.5104
8269,12451,-0.000451223,3.00738,1.24757,1.21676,4.4197,3.56814,6.15597e-05,27.3609
8474,12657.1,-0.481361,2.76332,1.25077,1.23963,4.42933,3.63195,-0.00141578,26.9328
8680,13841.5,1.0996,3.53644,1.51065,1.24461,5.32667,3.64514,6.15597e-05,27.0756
8885,14867.6,1.09942,3.56845,1.82404,1.24461,6.44094,3.64514,0.0,27.609
9090,15889.9,1.0285,3.60107,2.13408,1.24461,7.55357,3.64514,6.1512e-05,27.4869
9295,16915.9,0.116483,3.60107,2.27899,1.24461,8.07542,3.64514,0.0,26.7225
9524,17673.4,-0.81899,3.20466,2.29209,1.26481,8.12252,3.70789,0.0502282,26.8716
9729,17879.3,0.565994,3.43334,2.29515,1.29916,8.13307,3.81442,0.138251,26.7935
9934,18085.4,-1.15734,3.11018,2.29855,1.33064,8.14471,3.91259,0.004431915,26.9872
10140,18290.4,0.246771,3.37486,2.30384,1.36392,8.16269,4.01196,-0.002031279,26.8649
10345,18496.4,-1.18152,3.08648,2.30589,1.40064,8.16965,4.12495,-0.0219748,26.7629
10550,18702.5,0.277448,3.37732,2.3096,1.43153,8.18231,4.22078,0.0589689,26.9191
10756,18907.5,0.00369922,3.329,2.31569,1.46267,8.203,4.31331,-0.004554987,26.8104
10961,19113.5,-0.818629,3.13941,2.31669,1.50581,8.20635,4.44492,0.0478276,26.8377
11166,19319.4,0.078768,3.32962,2.32059,1.53231,8.21961,4.52776,0.0677711,26.7902
11372,19524.6,-2.84675,2.75008,2.3263,1.56566,8.23894,4.62576,-0.000553989,26.7154
11577,19730.6,-0.335193,3.22713,2.32804,1.60605,8.2448,4.74932,-0.0204976,26.6303
11782,19936.5,0.439676,3.37517,2.33177,1.63334,8.25736,4.83385,0.0859911,26.9633
11988,20141.6,-1.41413,3.004,2.33691,1.66927,8.27468,4.93894,-0.0168043,26.8377
12193,20347.7,-0.920766,3.10156,2.3387,1.70751,8.28067,5.05558,-0.0262836,26.7902
12398,20553.6,-1.88114,2.92182,2.34266,1.73296,8.29398,5.13409,-0.0731263,26.7121
12604,20758.8,-0.130558,3.25114,2.34765,1.76989,8.31073,5.24213,-0.00258532,26.7596
12809,20964.8,-0.928886,3.09017,2.34929,1.81014,8.31624,5.36469,0.00338545,26.7799
13014,21170.9,0.635649,3.39733,2.35403,1.83729,8.33217,5.44646,0.002708387,26.7629
13220,21375.8,-1.54207,2.97076,2.35845,1.87165,8.34696,5.54804,-0.01169529,26.8649
13425,21581.8,-1.44643,2.98368,2.35992,1.91164,8.35189,5.66972,-0.032439,26.9195
13631,21787,-0.000451223,3.27637,2.36525,1.93608,8.36977,5.74293,0.000123119,26.8649
13836,21993,-0.681845,3.12526,2.36908,1.97371,8.38254,5.8543,0.0320082,26.9464
14041,22199,-0.535677,3.14495,2.37055,2.01348,8.38746,5.97485,-0.003693294,27.1367
14247,22404.1,-1.17683,3.02185,2.3759,2.03788,8.4053,6.04704,0.01212616,26.9397
14452,22610,-0.776944,3.08709,2.37984,2.07524,8.41839,6.15729,-0.0142806,27.0756
14657,22815.9,0.008391018,3.23175,2.38129,2.1144,8.4232,6.27495,-0.0068325,27.0856
14863,23021.1,0.585483,3.34408,2.38684,2.13884,8.44158,6.34662,0.0227135,27.0856
15068,23227,-1.04347,3.01446,2.39058,2.17637,8.45394,6.45658,-0.04591937,27.0925
15273,23432.8,0.016331,3.20435,2.39192,2.21492,8.45834,6.57133,0.002831507,27.1537
15479,23638.2,-1.15211,2.98461,2.39813,2.23767,8.47873,6.63704,-0.0443805,27.1876
15684,23844.1,-0.375073,3.10125,2.40123,2.27723,8.48883,6.75177,0.00043087,27.3235
15889,24049.9,-0.834509,2.99815,2.40278,2.31581,8.49386,6.86505,-0.0285611,27.4729
16095,24255.2,-1.33599,2.85534,2.40874,2.34381,8.5132,6.94399,0.008125162,27.2963
16300,24461,-0.192274,2.9803,2.41184,2.37805,8.52304,7.04044,0.0288689,26.5692
16505,24666.9,0.432999,2.80887,2.41403,2.41558,8.52941,7.13966,0.008371353,26.746
16711,25603.2,1.0996,3.49212,2.58195,2.42558,9.09615,7.16324,6.15597e-05,27.1401
16916,26628.5,1.0996,3.55644,2.89511,2.42558,10.2041,7.16324,0.0,27.8092
17121,27653.7,1.0996,3.59584,3.20825,2.42558,11.3233,7.16324,0.0,27.456
17326,28675.8,0.255252,3.60107,3.44148,2.42558,12.163,7.16324,-6.15597e-05,26.7935
17555,29671.3,0.121355,3.49366,3.46864,2.43013,12.2608,7.17764,0.00313926,26.8852
17760,29876.9,-1.56408,3.00307,3.47424,2.48564,12.2812,7.34024,0.0299768,27.1468
17965,30082.8,-0.000270769,3.33762,3.48608,2.52563,12.3232,7.45756,6.15597e-05,26.7935
18170,30288.5,-1.93004,2.9566,3.49228,2.55806,12.3453,7.55547,-0.0137266,27.0248
18375,30494.3,-0.599197,3.20343,3.49836,2.594,12.3665,7.66552,0.0196358,27.2185
18580,30700,-1.27175,3.0717,3.50304,2.61979,12.3827,7.74498,0.0115106,27.0314
18785,30905.7,-2.12493,2.91597,3.50849,2.64273,12.4017,7.81543,-0.0822979,26.8104
18991,31110.7,-0.745545,3.17019,3.51337,2.67294,12.4187,7.90728,0.003816366,27.0551
19196,31316.5,0.75529,3.44872,3.51946,2.73444,12.4403,8.08239,0.000307798,26.9125
19401,31522.3,-0.351073,3.24713,3.53251,2.77075,12.4865,8.18774,0.000738668,26.9397
19606,31728.2,1.05737,3.50689,3.53778,2.79798,12.505,8.27152,0.0278225,26.9125
19811,31934.1,-0.969669,3.10802,3.54277,2.83196,12.5221,8.37534,-0.0158195,26.9872
20016,32140.2,-0.745545,3.14126,3.54812,2.85972,12.5406,8.45948,0.005909204,26.9566
20221,32346,-0.000451223,3.29515,3.55415,2.88135,12.5616,8.52458,0.0,26.8819
20427,32550.8,-3.22047,2.66391,3.55934,2.90863,12.5797,8.60648,-0.05743,26.7663
20632,32756.7,-0.633483,3.14803,3.56719,2.97706,12.6069,8.79961,0.030654,26.7187
20837,32962.5,-0.015068,3.2773,3.57712,3.01076,12.6419,8.89786,0.0227135,27.062
21042,33168.4,0.014346,3.27176,3.58332,3.04305,12.6634,8.99518,0.0179123,26.9872
21247,33374.5,-0.881968,3.10802,3.58831,3.07259,12.6804,9.08546,-0.0237599,26.8377
21452,33580.5,-0.638536,3.16065,3.59417,3.09538,12.7006,9.15375,-0.02456007,27.062
21658,33786.3,-0.443285,3.18527,3.59832,3.1206,12.7149,9.2295,0.0850678,27.0145
21863,33992,-2.55351,2.73962,3.60402,3.17403,12.7349,9.38066,-0.0024622,26.8988
22068,34197.7,-0.000451223,3.27391,3.61586,3.2162,12.7761,9.50148,6.15597e-05,27.062
22273,34403.6,-1.34014,3.01231,3.62205,3.24717,12.7978,9.59296,-0.028438,27.4935
22478,34609.7,-0.6241,3.13264,3.62813,3.28356,12.8186,9.70194,-0.009233141,27.5376
22683,34815.8,-1.9979,2.86273,3.63284,3.30895,12.8345,9.77852,0.0251757,27.2829
22888,35021.5,-0.000451223,3.25206,3.63827,3.33244,12.853,9.84887,0.0157578,27.1743
23094,35226.8,-0.852735,3.07109,3.64315,3.36264,12.8697,9.93826,-0.035209,27.0554
23299,35432.4,0.769906,3.36101,3.64852,3.42499,12.8883,10.1106,0.0298538,27.0859
23504,35638.4,-0.385359,3.15357,3.66231,3.46081,12.936,10.211,-0.0147114,27.1165
23709,35844.4,0.350532,3.27237,3.66706,3.48847,12.9522,10.2935,0.0529366,27.6532
23914,36050.4,-0.5604,3.08617,3.67257,3.52192,12.9706,10.3923,0.0259143,27.6363
24119,36256.1,-0.618506,3.05539,3.67791,3.54954,12.9885,10.4731,0.009171533,27.1638
24324,36462,-0.000451223,3.18897,3.68396,3.57177,13.009,10.5375,6.15597e-05,26.8379
24530,36667,-1.76854,2.83564,3.68915,3.59706,13.0265,10.6109,-0.0311464,27.1198
24735,36872.8,-1.42748,2.72054,3.697,3.66691,13.0521,10.7948,-0.0241292,27.0551
24940,37078.9,-0.609122,2.74177,3.70689,3.70105,13.084,10.8826,0.0182816,26.7323
25104,37241.9,0.00153377,2.34321,3.71133,3.72435,13.0972,10.94,0.003693247,26.7629