File: Battery Data/RAW/A123_12.csv
,Test_Time(s),Current(A),Voltage(V),Charge_Capacity(Ah),Discharge_Capacity(Ah),Charge_Energy(Wh),Discharge_Energy(Wh),dV/dt(V/s),Temperature (C)_1
1,8.01164,-1.09978,2.92521,0.0,0.001529298,0.0,0.00448285,-0.0012311,31.2364
230,1152.24,1.0996,3.51151,0.259873,0.05450437,0.885144,0.14842,0.000123119,31.5919
435,2178.28,1.0996,3.54813,0.573261,0.05450437,1.99286,0.14842,0.0,32.292
640,3204.3,1.09923,3.5943,0.886648,0.05450437,3.1115,0.14842,-6.15597e-05,32.177
845,4227.45,0.133446,3.60107,1.04958,0.05450437,3.69817,0.14842,0.0,31.7034
1074,5075.82,-0.000451223,3.46811,1.06615,0.0614577,3.75777,0.171811,6.15597e-05,31.7745
1279,5281.78,0.962812,3.49612,1.06969,0.106392,3.77011,0.30812,0.00141573,31.7137
1485,5487.07,0.48118,3.42441,1.07649,0.12832,3.79453,0.378173,0.000553989,31.8049
1690,5692.98,-0.000451223,3.33639,1.0843,0.175367,3.82242,0.51888,-6.15597e-05,31.6797
1896,5898.3,-0.962451,3.15727,1.08644,0.195638,3.82971,0.584064,-0.00036931,31.4937
2102,6103.59,-0.481361,3.25175,1.09391,0.23581,3.85637,0.702245,-0.0166196,31.8489
2307,6309.51,-0.481541,3.24221,1.09711,0.260669,3.8673,0.782028,-6.15597e-05,31.6899
2513,6514.83,-0.000270769,3.32746,1.10458,0.30318,3.89391,0.907512,-0.0166196,31.7812
2718,6720.77,0.962812,3.44626,1.10677,0.348095,3.90139,1.04122,0.117507,31.5648
2924,6926.04,0.481,3.3961,1.11428,0.370008,3.9281,1.11068,0.0502897,31.8625
3129,7131.98,-0.000451223,3.30992,1.12275,0.417054,3.95801,1.25032,-0.0673402,31.5072
3335,7337.28,-0.481541,3.21697,1.12488,0.436144,3.96525,1.31128,-6.15597e-05,31.7541
3541,7542.58,-0.000451223,3.30223,1.13236,0.477472,3.99171,1.43198,0.0,31.6154
3746,7748.47,-0.481361,3.20805,1.13556,0.501662,4.00254,1.50877,-0.000123072,31.5512
3952,7953.8,0.481,3.37363,1.14268,0.544838,4.02775,1.63507,0.000553989,31.6257
4157,8159.73,-2.40572,2.83257,1.14518,0.586531,4.03619,1.7582,-0.000123119,31.6323
4363,8365.08,-0.96227,3.11295,1.15265,0.610488,4.06255,1.83244,-0.000307751,31.4599
4568,8571.06,1.92481,3.62108,1.15985,0.658743,4.08765,1.97452,0.001354218,31.5376
4774,8776.27,-0.481541,3.19666,1.16334,0.677158,4.09975,2.03289,0.0,31.6258
4980,8981.59,-0.000270769,3.28838,1.17081,0.719187,4.12604,2.15496,6.15597e-05,31.7512
5185,9187.51,-0.481541,3.19789,1.17401,0.742704,4.13683,2.2293,-0.000123072,31.7744
5391,9392.83,0.481,3.35485,1.18046,0.78655,4.15967,2.35701,0.0502282,31.8285
5596,9598.8,-2.40572,2.81256,1.18363,0.82492,4.17033,2.47018,-0.00036931,31.6526
5802,9804.04,-0.96227,3.10125,1.19112,0.85085,4.19662,2.54914,-0.0172967,31.8657
6007,10009.9,1.92481,3.57799,1.19555,0.900458,4.21162,2.69438,0.101195,31.8285
6213,10215.3,-0.481361,3.1705,1.2018,0.918203,4.23353,2.75017,0.0,31.9063
6419,10420.6,-0.000270769,3.25483,1.20927,0.960902,4.25962,2.87302,6.15597e-05,31.9063
6624,10626.5,-0.481361,3.16034,1.21248,0.983759,4.27028,2.9444,-0.00036931,32.0991
6830,10831.8,-0.96227,3.05909,1.21889,1.02699,4.29275,3.06844,-0.000307751,32.0247
7035,11037.8,-2.40572,2.76178,1.2221,1.06327,4.30336,3.17424,-0.00043087,31.9942
7241,11243.1,-0.481361,3.12803,1.22956,1.09158,4.32917,3.25801,-0.000123119,31.9333
7446,11449.1,-0.962451,3.00276,1.23383,1.14097,4.34331,3.39939,-6.15597e-05,31.8556
7652,11654.3,-0.481361,3.0991,1.24024,1.15925,4.36537,3.45547,-6.15597e-05,31.8387
7857,11860.2,-0.000270769,3.18712,1.24772,1.20258,4.39095,3.57698,-6.1512e-05,31.9978
8063,12065.5,-0.000270769,3.16311,1.25093,1.22504,4.40135,3.64539,0.000184679,32.096
8269,12270.8,-0.96227,2.86273,1.25734,1.26732,4.42265,3.76009,-0.0181585,31.944
8474,12476.7,-2.40572,2.30228,1.26056,1.30151,4.43252,3.85037,-0.005355215,31.9198
8680,13737.1,1.0996,3.51736,1.54948,1.31115,5.42112,3.87146,0.000123119,31.9672
8885,14763.1,1.0996,3.5469,1.86285,1.31115,6.52848,3.87146,0.0,32.4542
9090,15789.2,1.09942,3.59399,2.17622,1.31115,7.64661,3.87146,6.15597e-05,32.2276
9295,16812.6,0.0908584,3.60107,2.31373,1.31115,8.14173,3.87146,0.0,31.6797
9524,17395.6,-2.26009,2.99692,2.32358,1.33285,8.17679,3.93967,-0.07712736,31.5615
9729,17601.6,0.826749,3.47889,2.32518,1.37593,8.18224,4.07392,0.0166812,31.4937
9934,17807.7,-1.6249,3.04924,2.32887,1.40281,8.19482,4.15896,-0.0164965,31.5208
10140,18012.8,-0.343855,3.2616,2.3342,1.43805,8.21294,4.26466,0.0218517,31.636
10345,18218.8,0.0444818,3.32962,2.33598,1.47709,8.219,4.38617,0.0180354,31.5952
10550,18424.8,-0.000270769,3.32992,2.33995,1.50221,8.23246,4.46529,0.000123119,31.6191
10756,18629.8,0.114859,3.3367,2.34493,1.53965,8.24937,4.57766,0.00406256,31.4974
10961,18835.7,-0.590535,3.20743,2.34659,1.57908,8.25501,4.70017,0.0276994,31.5748
11166,19041.8,0.378863,3.37363,2.35068,1.60736,8.26884,4.78721,0.01255703,31.5749
11372,19246.9,-1.17755,3.0994,2.35574,1.64048,8.28598,4.88732,-0.05823021,31.4429
11577,19452.9,-1.00648,3.11664,2.35721,1.68076,8.29093,5.01194,-0.0212977,31.612
11782,19658.9,-0.000270769,3.29822,2.36254,1.7062,8.30888,5.0895,0.000184679,31.2499
11988,19864,-0.565091,3.18558,2.36635,1.743,8.32166,5.20031,0.0163118,31.3955
12193,20070,-0.333389,3.22128,2.36782,1.78308,8.32659,5.32379,0.0179738,31.4632
12399,20275.1,0.0495345,3.28961,2.37314,1.80671,8.34449,5.39524,0.05706067,31.4768
12604,20481.1,-0.11919,3.25821,2.3771,1.84474,8.35774,5.50985,0.02277503,31.4632
12809,20687.1,-0.709996,3.15326,2.37849,1.88431,8.36239,5.63149,-0.0256681,31.3958
13015,20892.2,-0.646657,3.16742,2.38397,1.90878,8.38079,5.70519,-0.0270838,31.4295
13220,21098.1,-0.795712,3.13326,2.38774,1.94613,8.3934,5.81783,-0.007509613,31.6023
13425,21304.1,-0.728041,3.14588,2.38917,1.9847,8.39817,5.93611,-0.0267145,31.4024
13631,21509.2,-0.000270769,3.2813,2.39539,2.00783,8.419,6.00541,0.000123119,31.568
13836,21715.2,-0.840464,3.11941,2.39849,2.04691,8.42932,6.12315,-0.0155117,31.8556
14041,21921.1,-0.825126,3.11633,2.40006,2.08528,8.43456,6.24041,-0.0128033,31.8691
14247,22126.3,-1.65684,2.95814,2.40602,2.11218,8.45446,6.32012,0.0213593,31.7338
14452,22332.3,-0.0136244,3.2419,2.40912,2.14778,8.46473,6.42731,-0.000307751,32.0078
14657,22538.2,0.166108,3.26899,2.41094,2.18569,8.47075,6.54222,-0.004493427,31.8794
14863,22743.4,-0.0944677,3.21205,2.41673,2.21373,8.48992,6.6245,0.003877926,31.8794
15068,22949.4,-1.50598,2.95568,2.41973,2.24879,8.49981,6.72944,-0.0301,31.842
15273,23155.5,0.174589,3.25329,2.42313,2.28447,8.51101,6.83644,-0.00640163,31.8758
15479,23360.5,-1.6323,2.89135,2.42735,2.3187,8.52482,6.93552,0.0279456,31.7541
15684,23566.4,-3.7474,2.51064,2.43035,2.35284,8.53458,7.03676,-0.101133,31.947
15889,23772.4,-1.66442,2.88889,2.4338,2.38458,8.54584,7.13101,-0.0292998,32.3933
16095,23977.5,0.297298,3.20005,2.439,2.41832,8.56264,7.22722,0.00178509,32.1938
16300,24183.4,-1.58628,2.73439,2.44113,2.45466,8.56942,7.33141,-0.0313311,31.5545
16505,24389.1,0.00153377,2.83472,2.4448,2.48595,8.58036,7.41678,0.0549063,31.5037
16711,25485.3,1.0996,3.49797,2.67214,2.49502,9.35423,7.43898,0.0,31.8691
16916,26510.5,1.0996,3.54013,2.98526,2.49502,10.4584,7.43898,-6.15597e-05,32.3966
17121,27535.8,1.0996,3.57983,3.29839,2.49502,11.5729,7.43898,6.1512e-05,32.1634
17326,28560.4,0.129295,3.60107,3.48916,2.49502,12.2589,7.43898,0.0,31.5883
17555,29267.8,-0.867171,3.24283,3.50203,2.51284,12.3052,7.49619,-0.0349012,31.7676
17760,29473.9,0.828373,3.48566,3.50987,2.57372,12.3332,7.67442,-0.009725571,31.683
17965,29679.8,-1.6812,3.04031,3.52109,2.61164,12.3729,7.78706,-0.0367478,31.7001
18170,29885.6,-0.000451223,3.33393,3.52685,2.63722,12.3932,7.8669,0.000123119,31.4937
18375,30091.4,-0.0778659,3.3133,3.53132,2.67187,12.4086,7.97463,0.0184662,31.717
18580,30297,-0.390051,3.2536,3.53667,2.6995,12.4271,8.05999,-0.004862785,31.8116
18785,30503,-1.44679,3.07232,3.54268,2.72264,12.4482,8.13092,0.01132598,31.717
18991,30708.2,0.180183,3.34654,3.54798,2.75072,12.4668,8.21649,0.0478891,31.6425
19196,30914,-0.462774,3.22128,3.55572,2.81751,12.4937,8.41035,0.00997181,31.6763
19401,31119.7,-0.111791,3.29361,3.56568,2.85033,12.5289,8.508,-0.004924345,31.5681
19606,31325.7,-0.2585,3.2536,3.57188,2.88271,12.5505,8.60731,0.006093836,31.5681
19811,31531.7,-0.317148,3.24159,3.57683,2.9124,12.5674,8.69932,0.007386493,31.7137
20016,31737.4,-0.249117,3.24929,3.58267,2.93619,12.5875,8.77161,0.0419799,31.6327
20222,31942.5,0.160694,3.31731,3.58698,2.95992,12.6024,8.84381,0.000123072,31.636
20427,32148.4,-1.10122,3.06709,3.59252,3.01588,12.6218,9.00546,0.0251757,31.5919
20632,32354.1,-1.01388,3.11418,3.60438,3.05567,12.6631,9.12186,-0.0353321,31.4632
20837,32560,-2.08072,2.91936,3.61057,3.08852,12.6848,9.22049,-0.0326852,31.5952
21042,32766,-0.604791,3.17173,3.61667,3.12409,12.7056,9.32883,0.02400608,31.7577
21247,32971.6,-1.5058,3.01138,3.62137,3.15011,12.7217,9.40847,-0.00172353,31.7577
21452,33177.5,-2.43189,2.8538,3.62681,3.17362,12.7403,9.48003,-0.0395178,31.6121
21658,33382.9,-0.331404,3.21451,3.63168,3.20306,12.757,9.56931,0.02462163,31.8625
21863,33588.5,1.46646,3.52259,3.63817,3.26427,12.7796,9.74357,0.0212362,31.8321
22068,33794.5,-0.686717,3.15542,3.65086,3.30095,12.8238,9.84999,-0.001969719,31.8354
22273,34000.2,0.789395,3.41087,3.65656,3.32774,12.8435,9.93198,-0.008863783,31.8929
22478,34206,-0.516369,3.17019,3.66109,3.362,12.8588,10.0362,0.0155732,32.3833
22683,34412.1,-0.394743,3.18004,3.66644,3.38968,12.877,10.1198,0.0122493,32.2345
22888,34618.1,-1.02326,3.07878,3.67247,3.41136,12.8977,10.1848,-0.0360092,31.9098
23094,34823.3,-2.71935,2.75932,3.67766,3.44016,12.9155,10.2704,0.015881,32.0722
23299,35029.1,-0.633483,3.1031,3.68552,3.50722,12.9422,10.4593,6.15597e-05,31.9673
23504,35234.9,-0.111791,3.20035,3.69547,3.54064,12.9765,10.5557,0.003754806,31.6425
23709,35440.6,-0.424157,3.12618,3.70161,3.57299,12.9973,10.6518,-0.004370308,31.7305
23914,35646.4,-0.0536851,3.18804,3.7066,3.60271,13.0139,10.7409,0.0339163,32.4137
24119,35852.2,-0.940255,3.02892,3.71245,3.62563,13.0334,10.8083,-0.0188356,32.4305
24325,36057.6,0.0823771,3.18835,3.71659,3.65063,13.0473,10.8816,0.0472736,32.0755
24530,36263.6,-2.34365,2.68576,3.7223,3.70473,13.0666,11.0308,-0.01311102,31.8827
24735,36469.3,-0.000270769,3.06401,3.73414,3.74615,13.1055,11.1437,0.000184679,31.8589
24940,36675.2,-1.58393,2.63252,3.74034,3.77761,13.1252,11.2285,-0.00116954,31.6459
25092,36826.6,0.00153377,2.45647,3.74489,3.80496,13.1388,11.2973,0.00313926,31.5377