File: Battery Data/RAW/A123_03.csv
,Test_Time(s),Current(A),Voltage(V),Charge_Capacity(Ah),Discharge_Capacity(Ah),Charge_Energy(Wh),Discharge_Energy(Wh),dV/dt(V/s),Temperature (C)_1
1,8.01576,-1.09918,2.72915,0.0,0.00152901,0.0,0.004195896,-0.00295463,9.6909
220,1099.26,1.09994,3.52968,0.275255,0.0230313,0.944638,0.0581858,0.0,10.255
415,2075.18,1.10013,3.56384,0.573455,0.0230313,2.00273,0.0581858,6.15597e-05,11.2283
610,3047.61,0.894454,3.59985,0.862581,0.0230313,3.03959,0.0581858,-6.15597e-05,11.1631
805,4023.51,0.149328,3.60016,0.975532,0.0230313,3.44624,0.0581858,-6.1512e-05,10.303
1000,4999.41,0.0612357,3.60016,1.00097,0.0230313,3.53781,0.0581858,0.0,9.96606
1219,5448.08,-0.480657,3.28592,1.00582,0.0411678,3.55504,0.11821,-0.000307751,9.85618
1414,5643.99,0.000190588,3.32993,1.01331,0.083442,3.58165,0.243689,0.000123119,9.78047
1610,5839.2,0.000190588,3.32008,1.01652,0.105872,3.59256,0.315554,-0.0158197,9.89035
1806,6034.41,-0.480657,3.23883,1.02293,0.144881,3.61539,0.429919,-0.000123119,10.2135
2001,6230.28,-0.480845,3.23113,1.02613,0.168377,3.62623,0.505048,-0.000123072,10.0727
2197,6425.56,-0.962068,3.13819,1.03256,0.210661,3.64908,0.629431,-0.000369358,10.1793
2392,6621.48,-2.40574,2.85811,1.03576,0.241435,3.65991,0.722513,0.0477668,9.8391
2588,6816.71,-0.480657,3.22036,1.04324,0.272124,3.68623,0.814617,-0.00036931,9.92867
2783,7012.66,-0.96188,3.09971,1.04752,0.316504,3.70073,0.945559,-0.0631556,10.3406
2979,7207.87,-0.962068,3.1111,1.05286,0.337937,3.71967,1.01277,-0.00043087,10.1236
3174,7403.8,-0.96188,3.08433,1.05714,0.384924,3.73413,1.15082,0.0,10.8838
3370,7599,-0.480845,3.18958,1.06356,0.401453,3.75664,1.20302,-0.000123119,10.334
3565,7794.95,0.000378419,3.27268,1.07103,0.445739,3.78277,1.33207,0.000246239,10.54
3761,7990.17,-0.96188,3.09694,1.07317,0.46679,3.78994,1.39848,-0.000184679,10.2165
3957,8185.39,0.000378419,3.27515,1.08066,0.506098,3.816095,1.51159,0.000184679,10.385
4152,8381.41,-0.480845,3.18866,1.08387,0.52868,3.82681,1.58267,-0.0163736,10.2135
4348,8576.58,-0.480845,3.18312,1.090282,0.56959,3.84933,1.7008,-6.15597e-05,10.1964
4543,8772.53,-0.480657,3.17789,1.09348,0.593097,3.86002,1.77472,-6.15597e-05,10.1346
4739,8967.72,0.000190588,3.26376,1.10095,0.633827,3.88603,1.89177,0.000184631,10.1175
4934,9163.75,-2.40574,2.7864,1.10309,0.674289,3.89316,2.01017,-0.000553989,10.1793
5130,9358.86,-0.480657,3.17266,1.11057,0.696818,3.91917,2.07866,-6.15597e-05,10.0931
5325,9554.8,-0.962068,3.04616,1.11485,0.743223,3.93348,2.21334,-6.15597e-05,10.2103
5521,9750.05,-0.480845,3.16342,1.12127,0.76176,3.95583,2.27094,-0.000307798,9.93188
5716,9946.09,0.000378419,3.23421,1.12875,0.808036,3.98171,2.40446,-6.15597e-05,10.2795
5912,10141.2,-0.480845,3.1465,1.13089,0.826169,3.98879,2.46109,-0.000123119,9.87003
6107,10337.2,2.75712e-06,3.23206,1.13838,0.868417,4.01462,2.58132,0.000123119,10.5204
6303,10532.4,0.000190588,3.2219,1.14159,0.890856,4.02521,2.65093,-0.0161275,10.1964
6499,10727.5,-0.480845,3.1348,1.148,0.929904,4.04739,2.76073,-0.000307798,10.3755
6694,10923.5,-0.480657,3.1191,1.1512,0.953409,4.05791,2.83329,-0.000184679,10.0971
6890,11118.7,-0.962068,3.01138,1.15761,0.995707,4.07995,2.95209,-0.000554037,10.5651
7085,11314.7,-2.40593,2.69622,1.16082,1.02652,4.09043,3.04105,0.0493057,10.6408
7281,11509.9,-0.480657,3.08863,1.16829,1.05713,4.11573,3.12824,-0.000553989,10.7165
7476,11705.8,-0.96188,2.92551,1.17256,1.10156,4.12954,3.25137,-0.0635865,11.0737
7672,11901,-0.962256,2.91874,1.1779,1.12297,4.14762,3.31469,-0.00116954,10.4268
7867,12096.9,-0.962256,2.64451,1.18218,1.16998,4.16088,3.43763,-0.001354218,11.1355
8063,12292.1,-0.480845,2.73254,1.18861,1.18649,4.18114,3.48318,-0.0009233,10.8125
8259,13183,1.09994,3.48259,1.34107,1.19767,4.69733,3.51265,0.000123119,9.90096
8454,14159,1.09994,3.54476,1.63927,1.19767,5.74855,3.51265,0.0,10.3649
8649,15134.9,1.09994,3.58415,1.93748,1.19767,6.81064,3.51265,6.1512e-05,11.1119
8844,16110.8,0.255265,3.60016,2.15,1.19767,7.57522,3.51265,6.15597e-05,10.8402
9039,17086.8,0.0612357,3.60016,2.18252,1.19767,7.69229,3.51265,0.0,10.0865
9258,17504.1,-0.145379,3.30685,2.18819,1.22857,7.71216,3.60847,-0.0125573,9.80818
9453,17700,-0.815372,3.17297,2.18989,1.26518,7.7179,3.72248,-0.0192667,9.80818
9648,17896,0.000190588,3.31916,2.19386,1.29,7.73133,3.80048,-0.00443201,9.74632
9844,18091,-0.343352,3.23944,2.19872,1.32451,7.74775,3.90362,0.010095,9.8391
10039,18287.1,-0.81988,3.15788,2.20047,1.36169,7.75362,4.01863,-0.0275767,9.8391
10234,18483,0.003008054,3.31085,2.20402,1.38653,7.76561,4.09652,-0.00289307,9.8391
10430,18679,-2.63546,2.84949,2.20935,1.41839,7.78353,4.19145,-0.0152657,9.86682
10625,18874.9,-0.808422,3.12803,2.21036,1.4596,7.78689,4.31773,0.0024622,9.88388
10820,19070.9,-0.912856,3.13388,2.21425,1.48359,7.79994,4.39258,-0.0310853,10.1207
11016,19265.9,0.003571548,3.28376,2.21998,1.51444,7.81907,4.48414,-0.004062653,10.0418
11211,19461.8,-1.84018,2.93567,2.22078,1.55446,7.82176,4.60579,-0.005355311,10.2412
11406,19657.8,-1.60332,3.0003,2.22446,1.58129,7.83404,4.6887,-0.0343478,10.1859
11602,19852.8,0.395199,3.33178,2.22953,1.61323,7.8509,4.78322,0.003754854,9.8391
11797,20048.5,-0.215064,3.21298,2.23141,1.64836,7.85716,4.88998,0.0263456,9.90096
11992,20244,-1.29941,3.05078,2.2347,1.67753,7.86814,4.9794,-0.0352711,10.0003
12188,20439.6,0.353689,3.301,2.23901,1.71196,7.8825,5.08126,0.0376102,10.1517
12383,20635.3,-0.570065,3.14619,2.24185,1.74299,7.89189,5.1759,0.009233284,9.91481
12578,20831,0.175437,3.29638,2.24526,1.77568,7.90326,5.27513,0.00535526,9.99374
12774,21026.5,-1.55355,2.9803,2.24947,1.80463,7.91722,5.36093,-0.03958,10.124
12969,21222.1,-0.46394,3.16189,2.25247,1.83807,7.92714,5.4616,0.01218791,10.0865
13164,21417.7,0.521234,3.33208,2.25447,1.87446,7.93377,5.57176,0.004493522,9.90096
13360,21612.6,-0.045828,3.21359,2.25999,1.90222,7.95206,5.65343,0.0344093,9.96281
13555,21808.2,-0.0101401,3.22375,2.26309,1.9349,7.96227,5.75124,0.0155119,10.076
13750,22003.7,-0.833779,3.07448,2.26465,1.97217,7.96739,5.86351,-0.00043087,10.1793
13946,22198.5,-2.04867,2.86704,2.27062,1.99488,7.98708,5.93012,-0.0395184,10.2721
14141,22394.2,0.0822728,3.21575,2.27372,2.03182,7.99722,6.03927,0.0228369,10.2583
14336,22590,0.804859,3.32993,2.27518,2.06895,8.00198,6.15014,0.0521372,10.1793
14532,22785.4,0.000190588,3.20282,2.28126,2.09164,8.02185,6.21633,-0.009971952,10.1175
14727,22981.1,-0.795838,3.024,2.28423,2.12891,8.0315,6.32501,-0.00116954,10.413
14922,23176.9,-0.0670529,3.13419,2.28565,2.16629,8.03605,6.43508,-0.002831507,10.3478
15118,23372.4,0.138998,3.16712,2.29102,2.19011,8.05341,6.50366,0.00424728,10.1932
15313,23568.1,-0.213749,3.05847,2.29481,2.22539,8.06555,6.60419,0.0284385,10.3926
15508,23763.8,-0.008825303,2.96152,2.29619,2.26354,8.06983,6.71218,0.0317009,10.8605
15704,23959.4,-2.04022,2.5411,2.30149,2.28508,8.08592,6.76975,-0.06598711,10.5204
15900,24537.9,1.09994,3.29054,2.3374,2.31633,8.19813,6.84506,0.00086174,11.1046
16095,25513.2,1.09994,3.53491,2.6354,2.31633,9.23514,6.84506,6.15597e-05,10.159
16290,26488.5,1.09994,3.56353,2.93342,2.31633,10.2924,6.84506,0.0,10.8711
16485,27459.8,0.784761,3.60016,3.21811,2.31633,11.3133,6.84506,0.0,11.0981
16680,28435.1,0.09203998,3.60016,3.2974,2.31633,11.5988,6.84506,-6.1512e-05,10.9361
16899,29141.6,0.073069,3.37517,3.30853,2.33253,11.6388,6.89668,0.01218791,10.2103
17094,29337.3,-0.311985,3.2336,3.31338,2.39308,11.656,7.07288,0.0305314,9.90096
17289,29533,-0.599366,3.19882,3.32457,2.43032,11.6952,7.18293,-0.0171123,9.8391
17484,29728.6,0.000190588,3.31824,3.33234,2.45309,11.7225,7.25386,0.0,10.0898
17679,29924.3,-0.687083,3.18004,3.33733,2.48781,11.7396,7.36089,0.002031326,9.84557
17874,30120,-0.39463,3.23175,3.34162,2.51244,11.7543,7.43688,-0.0169892,10.0418
18069,30315.7,-2.12455,2.95014,3.34697,2.53333,11.7727,7.50129,-0.0718348,10.0865
18265,30510.6,-0.31668,3.23298,3.35177,2.562,11.7893,7.58869,0.0197592,10.5961
18460,30706.2,0.764851,3.37702,3.35644,2.62235,11.8057,7.76161,0.0216058,10.0694
18655,30901.8,-0.789451,3.12926,3.36785,2.6598,11.8453,7.87087,-0.005970859,10.334
18850,31097.5,0.000190588,3.28069,3.37564,2.68318,11.8723,7.94285,-6.15597e-05,10.1793
19045,31293,-1.20813,3.06155,3.38064,2.71661,11.8892,8.04462,-0.020621,10.1793
19240,31488.7,-0.930325,3.10064,3.38484,2.74228,11.9035,8.12288,-0.006524849,10.2135
19435,31684.3,0.000190588,3.27268,3.39029,2.76263,11.9221,8.18487,0.0374871,10.7848
19631,31879.5,-0.876981,3.10525,3.3951,2.79141,11.9386,8.27154,0.0155734,10.4373
19826,32075.2,-1.05279,3.03293,3.39941,2.85232,11.9536,8.44439,0.0507215,10.369
20021,32270.8,-0.609321,3.1388,3.41119,2.88917,11.9942,8.55089,0.0,10.0662
20216,32466.5,0.740808,3.38995,3.41879,2.9132,12.0205,8.62448,-0.0177895,10.2103
20411,32662,-0.720517,3.13203,3.42395,2.94567,12.0379,8.7227,-0.029054,9.93188
20606,32857.6,-1.50546,2.98768,3.42816,2.97105,12.0521,8.79971,-0.001846647,9.96281
20801,33053.2,-0.438019,3.18743,3.43359,2.99191,12.0706,8.86291,-0.00332398,10.2103
20997,33248.6,-1.7981,2.93413,3.4384,3.02004,12.087,8.94719,-0.0317009,10.5236
21192,33444.2,-2.74327,2.7153,3.44269,3.08036,12.1019,9.11703,-0.00627861,10.1793
21387,33639.8,-0.243802,3.17143,3.45447,3.11861,12.1422,9.22636,-0.009725714,10.1484
21582,33835.473,1.08172,3.41241,3.46104,3.14326,12.1648,9.3012,0.0337322,10.0247
21777,34031.1,0.5943,3.32285,3.46709,3.17539,12.1851,9.39729,0.0142192,10.0312
21972,34226.8,-1.57853,2.93936,3.47144,3.19972,12.1997,9.47033,-0.004616642,10.1793
22167,34422.5,-0.457742,3.14927,3.47688,3.22165,12.2179,9.53583,-0.0139114,10.8881
22363,34617.5,0.01991285,3.20343,3.48168,3.24912,12.2341,9.61701,0.0296696,10.6717
22558,34813.1,-3.84922,2.47585,3.48598,3.30746,12.2489,9.77884,-0.002277517,10.6856
22753,35008.8,-0.632988,3.03416,3.49776,3.3484,12.2886,9.89259,-0.01224947,10.5961
22948,35204.5,-0.404398,3.08032,3.50397,3.37331,12.3096,9.96658,0.0,10.1175
23143,35400,-0.287379,3.08463,3.51006,3.40551,12.3297,10.0604,0.01132617,10.0833
23338,35595.6,-2.66964,2.67468,3.51478,3.42769,12.3451,10.1254,-0.0431502,10.0556
23533,35791.3,-0.0486455,3.12649,3.5202,3.45162,12.3629,10.1943,-0.001846647,11.1184
23729,35986.5,-0.511649,2.95783,3.52502,3.47844,12.3785,10.2699,0.002708435,11.129
23879,36135.4,-0.000748567,2.64267,3.52922,3.51679,12.3922,10.3654,0.0,10.8743