File: Battery Data/RAW/A123_14.csv
,Test_Time(s),Current(A),Voltage(V),Charge_Capacity(Ah),Discharge_Capacity(Ah),Charge_Energy(Wh),Discharge_Energy(Wh),dV/dt(V/s),Temperature (C)_1
1,8.01172,-1.0996,2.59712,0.0,0.001530281,0.0,0.00399973,-0.0033855,37.3616
232,1159.51,1.09942,3.51674,0.305749,0.0108442,1.04391,0.0267536,-6.15597e-05,39.9971
439,2195.64,1.09942,3.54813,0.622235,0.0108442,2.16255,0.0267536,0.0,41.6441
646,3231.69,1.0996,3.59368,0.938683,0.0108442,3.2919,0.0267536,6.15597e-05,41.8418
853,4265.58,0.0811139,3.60107,1.07364,0.0108442,3.77782,0.0267536,-6.15597e-05,41.4966
1084,4783.79,-0.481361,3.31884,1.08022,0.028735,3.80138,0.0865302,-0.00036931,41.6508
1292,4990.98,-0.000270769,3.35393,1.0877,0.0712748,3.82831,0.213843,0.0,41.3894
1499,5199.07,-0.481541,3.25791,1.0909,0.0948144,3.8393,0.289733,-0.000184679,41.4429
1707,5406.29,0.481,3.41856,1.09763,0.138633,3.86354,0.420106,0.0515208,41.4296
1914,5614.36,-2.40554,2.87781,1.10053,0.179786,3.87345,0.543535,-0.000246239,41.5805
2122,5821.55,-0.962451,3.15727,1.108,0.204564,3.9002,0.621296,-0.000184631,41.5469
2329,6029.63,-0.000270769,3.33454,1.11653,0.252543,3.93055,0.764624,-0.067094,41.5066
2537,6236.87,-0.481361,3.24098,1.11867,0.271652,3.93782,0.826055,0.0,41.6441
2745,6444.06,-0.000270769,3.33208,1.12614,0.312965,3.96451,0.947666,6.15597e-05,41.5773
2952,6652.214,-0.4811804,3.23913,1.12935,0.337723,3.97543,1.02704,6.15597e-05,41.5876
3160,6859.33,-0.000270769,3.31915,1.13682,0.380331,4.00203,1.15258,6.15597e-05,41.3829
3367,7067.42,0.962631,3.45642,1.13986,0.42524,4.01243,1.28578,0.001538849,41.3892
3575,7274.63,0.481,3.38532,1.14718,0.447168,4.03839,1.35494,0.00043087,41.5771
3782,7482.78,-0.000451223,3.30038,1.15497,0.494208,4.06595,1.49391,-6.15597e-05,41.4899
3990,7689.96,-0.96227,3.11879,1.15712,0.515573,4.07319,1.56174,-0.000184679,41.4999
4198,7897.13,-0.481361,3.21113,1.16458,0.555436,4.09964,1.67769,-0.000246191,41.3423
4405,8105.26,-0.481361,3.20559,1.16778,0.580595,4.11043,1.75752,-6.1512e-05,41.4396
4613,8312.43,-0.000451223,3.29453,1.17525,0.621992,4.13686,1.87807,0.000123119,41.1947
4820,8520.54,-0.96227,3.10433,1.17953,0.668091,4.15142,2.01398,-0.000184631,41.3389
5028,8727.72,-0.481541,3.20312,1.18594,0.689702,4.17411,2.08193,-0.000123072,41.5671
5235,8935.81,-0.000451223,3.28899,1.19341,0.735858,4.2005,2.21739,6.15597e-05,41.4266
5443,9143.01,0.481,3.36747,1.19621,0.758322,4.20993,2.28844,0.000553989,41.4665
5651,9350.18,-0.481361,3.1982,1.20304,0.798286,4.2341,2.40418,-0.000123119,41.5737
5858,9558.29,-0.481361,3.19174,1.20624,0.823442,4.24486,2.48371,0.0,41.7146
6066,9765.45,-0.481361,3.1862,1.21373,0.864354,4.27119,2.60182,-0.000184679,41.5805
6273,9973.52,-0.96227,3.06986,1.21799,0.912143,4.28558,2.74151,-6.15597e-05,41.6709
6481,10180.8,-0.481361,3.16311,1.22442,0.932574,4.30812,2.80517,-6.15597e-05,42.0664
6688,10388.9,-0.000451223,3.24683,1.23191,0.977524,4.33424,2.93489,0.0,41.7916
6896,10596.1,-0.000451223,3.23729,1.23511,0.999987,4.34487,3.00486,6.15597e-05,41.6812
7104,10803.3,-0.481361,3.13911,1.24153,1.04116,4.36733,3.1223,-0.000123072,41.6177
7311,11011.4,-2.40572,2.75716,1.24474,1.07399,4.37791,3.21892,0.0497357,41.6979
7519,11218.6,-0.481541,3.11449,1.25222,1.10723,4.40376,3.31561,-0.000184679,41.6273
7726,11426.7,-0.962451,2.9963,1.2565,1.15621,4.41791,3.45518,-6.1512e-05,41.9661
7934,11633.9,-0.481361,3.09171,1.26292,1.17542,4.43999,3.51387,-6.1512e-05,42.2209
8141,11842,-0.000270769,3.11295,1.27041,1.21916,4.46516,3.63508,6.15597e-05,42.0967
8349,12049,-0.000451223,3.03323,1.27361,1.24162,4.47523,3.7012,0.000123119,41.8854
8557,12256.3,-0.96227,2.49279,1.28002,1.28472,4.49461,3.80847,-0.004185724,41.5973
8765,13339.1,1.0996,3.48843,1.5012,1.29171,5.24189,3.8254,6.15597e-05,41.7315
8972,14375.2,1.0996,3.53675,1.81763,1.29171,6.35621,3.8254,6.15597e-05,42.1807
9179,15411.2,1.09942,3.57183,2.13406,1.29171,7.48074,3.8254,6.1512e-05,41.9458
9386,16445.9,0.125867,3.60107,2.34763,1.29171,8.24758,3.8254,-6.15597e-05,41.6107
9617,17074,-0.000270769,3.40902,2.35985,1.31236,8.29119,3.89049,-0.000123119,41.6845
9824,17281.7,-0.340065,3.2736,2.36085,1.3564,8.29463,4.0279,0.0174198,41.8557
10031,17489.5,0.0248123,3.34624,2.36512,1.38191,8.3092,4.1088,-0.007694244,41.8453
10239,17697.2,-0.641423,3.21359,2.37045,1.41825,8.32735,4.21795,0.0201898,41.7949
10446,17904.8,0.104573,3.34501,2.3722,1.45786,8.33329,4.3414,0.006463194,41.5871
10653,18112.6,-0.000270769,3.33393,2.3762,1.48298,8.34688,4.42063,0.000123119,41.6508
10861,18320.2,-0.297659,3.27145,2.38119,1.52068,8.36385,4.53394,-0.0143421,41.463
11068,18527.8,0.000811954,3.31638,2.38285,1.56103,8.36949,4.65951,0.0357014,41.5066
11275,18735.7,0.406111,3.39486,2.38791,1.58812,8.38671,4.74301,-0.007386493,41.5838
11483,18943.4,-1.0137,3.13141,2.39199,1.62388,8.4005,4.85149,-0.007324934,41.537
11690,19151.3,-0.104393,3.2816,2.39346,1.66361,8.40548,4.97487,0.0291151,41.537
11898,19358.7,-1.6415,3.01969,2.39879,1.68701,8.42347,5.04618,-0.05706067,41.4127
12105,19566.7,-0.11919,3.27022,2.40275,1.72658,8.43679,5.16588,-0.00344706,41.453
12312,19774.5,-0.710176,3.16465,2.40415,1.76636,8.44149,5.28863,0.0257912,41.4933
12520,19981.8,0.335373,3.34962,2.40965,1.79091,8.46001,5.36281,0.0344088,41.4363
12727,20189.4,-1.04366,3.10433,2.4135,1.82865,8.47294,5.47711,-0.0126186,41.5671
12934,20397.3,0.0832794,3.30346,2.41508,1.86717,8.47825,5.59575,-0.0248063,41.4799
13142,20604.8,-2.04896,2.92705,2.42105,1.89173,8.49833,5.66956,-0.039764,41.5472
13349,20812.6,-0.0136244,3.2813,2.42415,1.93022,8.5087,5.7863,0.0287458,41.5537
13556,21020.3,0.168815,3.31177,2.42573,1.96889,8.514,5.9052,0.0100334,41.5334
13764,21227.9,0.187943,3.31023,2.43172,1.9969,8.53413,5.98868,0.0247447,41.5402
13971,21435.6,-1.5058,3.01015,2.43476,2.03219,8.54427,6.09614,-0.0270223,41.7281
14178,21643.2,0.0352786,3.28776,2.43823,2.06767,8.55591,6.20463,-0.005662966,41.8287
14386,21849.9,0.482985,3.33608,2.44241,2.10272,8.56988,6.3084,0.04628868,41.7916
14593,22057.8,-0.975805,3.0717,2.44554,2.13747,8.58026,6.41361,-0.01169529,41.9391
14800,22265.4,0.292606,3.30192,2.44917,2.16851,8.59233,6.50834,0.002893019,41.9223
15008,22473.1,0.604791,3.35085,2.45496,2.20149,8.61149,6.6049,0.0169274,41.7648
15215,22680.9,-2.11555,2.84365,2.45636,2.24242,8.61612,6.72743,-0.0933776,41.9927
15422,22888.6,-1.62418,2.9329,2.46025,2.2703,8.62894,6.81223,-0.0258528,41.8251
15630,23096.2,-2.77926,2.71223,2.46598,2.3036,8.64774,6.90811,-0.0201282,41.9359
15837,23304,-0.819892,3.04277,2.46772,2.3449,8.65341,7.03081,0.00043087,42.1002
16044,23511.8,0.139942,3.21113,2.47167,2.37208,8.66629,7.11255,-0.009910202,42.2574
16252,23719.3,-0.701334,3.02277,2.47659,2.40924,8.68225,7.21827,-0.000246191,42.0329
16459,23927.1,-0.971835,2.85103,2.47836,2.44782,8.68785,7.32958,0.0018466,41.6743
16666,24134.7,-1.59007,2.5565,2.48233,2.47728,8.69985,7.40952,0.0563836,41.1277
16875,25004.4,1.09978,3.45303,2.62382,2.49667,9.17109,7.4568,0.000123072,41.5773
17082,26039.6,1.09942,3.53151,2.94,2.49667,10.2797,7.4568,0.0,42.4519
17289,27074.7,1.09942,3.56383,3.25617,2.49667,11.4006,7.4568,-6.15597e-05,41.9897
17496,28109.9,0.323824,3.60138,3.5347,2.49667,12.3986,7.4568,6.15597e-05,41.4266
17727,28927.3,-1.36955,3.18189,3.5586,2.50988,12.4847,7.49925,-0.0501666,41.6474
17934,29135,-0.3117342,3.27391,3.56345,2.57332,12.5022,7.68626,-0.03367009,41.7246
18141,29342.8,1.28149,3.56752,3.57696,2.61113,12.5501,7.79858,-0.004493475,41.8418
18348,29550.6,-1.62309,3.04862,3.58245,2.63642,12.5695,7.87765,-0.0563836,41.6441
18555,29758.4,0.370201,3.39794,3.5877,2.67109,12.5876,7.9854,0.0394562,41.909
18762,29966.1,-0.974361,3.15326,3.59345,2.69872,12.6076,8.07077,-0.00350862,41.7884
18969,30173.9,-0.000270769,3.33516,3.59948,2.72212,12.6288,8.1429,6.15597e-05,41.5003
19177,30381.7,-1.01388,3.15727,3.60468,2.74658,12.6471,8.21836,-0.03563986,41.517
19384,30589.7,-1.42766,3.05847,3.61255,2.81733,12.6745,8.42359,-0.0201282,41.5003
19591,30797.4,-0.209597,3.28191,3.62246,2.85161,12.7097,8.52601,0.0,41.4567
19798,31005,-0.117205,3.28499,3.62863,2.88395,12.7312,8.6254,0.01188,41.6376
20005,31212.5,-0.317148,3.24929,3.63362,2.91374,12.7483,8.71793,0.0250525,41.6441
20212,31420.1,-0.789757,3.16096,3.63948,2.93762,12.7685,8.79063,0.004431868,41.7179
20420,31627.1,0.160694,3.32377,3.64379,2.96159,12.7834,8.86374,6.15597e-05,41.6409
20627,31834.7,-1.55037,3.00123,3.64936,3.01827,12.803,9.02793,-0.0154501,41.6376
20834,32042.3,-2.75797,2.8061,3.66122,3.05907,12.8444,9.14754,-0.048874,41.4933
21041,32250.1,-0.73544,3.15388,3.66741,3.09255,12.8661,9.2483,0.026222,41.5068
21248,32457.8,0.316606,3.34501,3.67394,3.12599,12.8885,9.35049,0.0068325,41.6075
21455,32665.5,0.268064,3.33054,3.67831,3.15325,12.9034,9.43405,0.004862738,41.5472
21662,32873.4,-0.336637,3.22436,3.6837,3.1781,12.9219,9.50972,0.001107979,41.5773
21870,33080.3,1.88619,3.61554,3.68936,3.20678,12.9415,9.59698,0.0738034,41.517
22077,33287.9,0.365329,3.35547,3.69843,3.2659,12.9731,9.76536,-0.047212,41.59375
22284,33495.6,-0.370562,3.20928,3.70767,3.30748,13.0054,9.88704,0.0052321,41.7246
22491,33703.4,-1.56408,2.99322,3.71345,3.33443,13.0254,9.96928,0.0179738,41.7246
22698,33911,0.126588,3.29115,3.71802,3.36577,13.0409,10.0655,0.0431494,42.2105
22905,34118.7,-0.000270769,3.26899,3.72479,3.39173,13.064,10.1439,6.15597e-05,41.9359
23112,34326.491,0.725876,3.38717,3.73008,3.41732,13.0821,10.2205,0.0152654,41.9359
23320,34533.8,-2.4364,2.80056,3.73591,3.45135,13.1023,10.3196,0.0486278,41.7582
23527,34741.6,-1.64222,2.95229,3.74566,3.5104,13.1357,10.4876,-0.0302846,41.7415
23734,34949.4,1.70556,3.51982,3.75262,3.54729,13.1597,10.5948,0.0967016,41.7749
23941,35157.2,-0.34584,3.15049,3.75864,3.58018,13.1801,10.6924,-0.0166812,42.375
24148,35364.9,-0.000270769,3.21543,3.76476,3.60623,13.2005,10.7711,6.15597e-05,42.3717
24355,35572.6,0.681484,3.31977,3.76994,3.63225,13.2179,10.8478,0.0205591,42.2679
24563,35780.3,-0.979774,3.01261,3.77496,3.65852,13.2347,10.9247,-0.026653,41.8992
24770,35987.9,-3.84971,2.43708,3.77931,3.72053,13.2496,11.0958,-0.0902999,41.7517
24977,36195.7,-0.239011,2.99538,3.79109,3.76132,13.2888,11.2073,0.0293613,41.5908
25184,36403.5,-0.443285,2.90028,3.79885,3.78431,13.3138,11.2718,-0.015881,41.5806
25391,36611.1,-0.253808,2.42262,3.80403,3.82098,13.3291,11.3662,-0.007386493,41.5305
25412,36630.7,-0.000631677,2.22287,3.80449,3.82261,13.3303,11.3699,0.0,41.5003