File: Battery Data/RAW/A123_11.csv
,Test_Time(s),Current(A),Voltage(V),Charge_Capacity(Ah),Discharge_Capacity(Ah),Charge_Energy(Wh),Discharge_Energy(Wh),dV/dt(V/s),Temperature (C)_1
1,8.01135,-1.09937,2.88858,0.0,0.00152871,0.0,0.004426596,-0.00141578,31.2424
226,1132.7,1.09994,3.4869,0.26612,0.0423834,0.899635,0.114123,0.0,31.763
427,2138.63,1.09994,3.52352,0.573496,0.0423834,1.9785,0.114123,0.0,32.6552
628,3144.58,1.09994,3.56569,0.880884,0.0423834,3.0674,0.114123,0.000123119,32.4187
829,4149.21,0.10763,3.59985,1.03771,0.0423834,3.63053,0.114123,-6.15597e-05,32.02
1054,4842.44,-0.96188,3.27607,1.0487,0.0529103,3.67002,0.149606,-0.0158812,31.9119
1255,5044.29,-0.96188,3.17543,1.05298,0.101516,3.68483,0.298499,0.0,31.8408
1457,5245.68,-0.480845,3.25883,1.05939,0.119292,3.70764,0.3559,-6.15597e-05,31.6751
1658,5447.66,0.000190588,3.33424,1.06687,0.163157,3.73413,0.487978,-6.15597e-05,31.8543
1860,5648.88,0.000190588,3.32839,1.07008,0.185599,3.74504,0.56027,-0.0146501,32.0133
2062,5850.18,-0.480845,3.2536,1.07649,0.225452,3.76786,0.679272,-0.000184631,31.9321
2263,6052.14,-0.480657,3.24837,1.0797,0.249759,3.77874,0.75753,-6.15597e-05,32.0639
2465,6253.36,0.000378419,3.32439,1.08719,0.290876,3.80519,0.880179,0.000123119,31.8712
2666,6455.29,0.962825,3.42811,1.08992,0.335773,3.81446,1.01542,0.104828,32.2364
2868,6656.57,-0.96188,3.15511,1.09682,0.357273,3.83881,1.08376,-0.000184679,32.0335
3069,6858.49,1.92527,3.58908,1.10344,0.404705,3.86174,1.22605,0.00141578,32.0166
3271,7059.75,-0.480657,3.21667,1.1075,0.422422,3.87585,1.28263,-0.000123119,31.9456
3472,7261.65,0.000190588,3.29546,1.11499,0.465087,3.90207,1.40913,6.15597e-05,31.949
3674,7462.97,0.000190588,3.29115,1.1182,0.487502,3.91288,1.48044,0.000123119,31.9998
3876,7664.25,-0.480845,3.21298,1.12463,0.528544,3.93552,1.60178,-0.000123119,31.8847
4077,7866.18,-3.84922,2.6876,1.12784,0.553843,3.94628,1.68169,-0.104398,32.047
4279,8067.47,-0.480845,3.21421,1.13532,0.592978,3.97243,1.79709,-0.0148963,31.8002
4480,8269.42,-0.962068,3.1151,1.1396,0.638564,3.98689,1.93291,-0.000307798,31.9456
4682,8470.65,0.481226,3.35671,1.14594,0.659595,4.00909,1.99917,0.000430918,31.7902
4883,8672.53,-0.000185074,3.27915,1.15348,0.706626,4.03538,2.13893,0.0,31.9394
5085,8873.84,-0.480657,3.20036,1.15562,0.725556,4.04254,2.1991,-6.15597e-05,31.9537
5287,9075.14,0.000190588,3.27976,1.16311,0.767012,4.06862,2.32079,6.15597e-05,32.0442
5488,9277.05,-0.480657,3.20097,1.16631,0.789984,4.07932,2.39353,-0.000184679,32.1011
5690,9478.34,-0.962068,3.11356,1.17273,0.832282,4.10176,2.51779,-0.00036931,31.9389
5891,9680.29,-2.40574,2.85503,1.17593,0.864674,4.11244,2.61527,0.0440119,31.9424
6093,9881.53,-0.480657,3.17789,1.18342,0.896164,4.13837,2.70949,-0.000123119,32.0237
6294,10083.5,-0.962068,3.07201,1.18769,0.942973,4.15263,2.84713,0.0,32.0876
6496,10284.7,-0.480657,3.16096,1.1941,0.962736,4.17479,2.90868,-0.000184679,31.9863
6697,10486.7,2.75712e-06,3.2299,1.20157,1.00863,4.20047,3.04247,0.0,32.0641
6899,10687.9,-0.962068,3.06124,1.20372,1.02965,4.20753,3.108,-0.000246239,32.3985
7101,10889.2,0.000190588,3.21667,1.21122,1.069,4.2332,3.22052,6.15597e-05,32.152
7302,11091.2,-0.480845,3.12187,1.21442,1.09318,4.24368,3.29538,-0.000123119,32.429
7504,11292.4,0.481226,3.25145,1.22099,1.13635,4.26612,3.41875,0.0449968,32.2668
7705,11494.4,-2.40574,2.74269,1.22404,1.17271,4.27603,3.52378,-0.000861788,32.3208
7907,11695.6,-0.480657,3.04985,1.23151,1.19933,4.30108,3.60145,-0.000246191,32.1112
8108,11897.6,-0.962068,2.73038,1.23578,1.24734,4.31438,3.73196,-0.00116954,32.1957
8310,12098.8,-0.480845,2.71499,1.24222,1.26589,4.33438,3.78295,-0.000984907,31.9524
8512,13007.7,1.09994,3.44042,1.39926,1.27744,4.85662,3.81288,0.0,31.8273
8713,14013.8,1.10013,3.51152,1.70667,1.27744,5.92919,3.81288,6.15597e-05,32.047
8914,15019.7,1.09994,3.54414,2.01403,1.27744,7.01301,3.81288,0.0,32.8994
9115,16024.3,0.235731,3.60016,2.26644,1.27744,7.91425,3.81288,0.0,32.6282
9340,16868.5,-0.129225,3.37548,2.28763,1.29062,7.9905,3.85515,0.0398262,31.9828
9541,17070.5,-0.104807,3.32193,2.29074,1.32417,8.00117,3.961,0.0112031,31.976
9742,17272.3,0.0591695,3.33978,2.29244,1.36175,8.00693,4.07932,0.00547843,31.8239
9944,17473.6,0.0648045,3.32931,2.2983,1.38952,8.02683,4.16432,0.0164968,31.8678
10145,17675.6,-0.732538,3.21051,2.30139,1.42326,8.03724,4.26946,-0.0164968,31.9016
10346,17877.5,0.521234,3.40441,2.30336,1.46056,8.04392,4.38641,0.003939533,31.7461
10548,18078.6,0.0655558,3.32316,2.30894,1.48857,8.06284,4.472,0.008002186,31.7022
10749,18280.7,-0.829459,3.18651,2.31201,1.52264,8.07317,4.57793,-0.0112031,31.9422
10950,18482.6,0.485546,3.38748,2.3143,1.55932,8.08089,4.69248,0.00166197,31.7597
11152,18683.7,-0.243051,3.2616,2.31962,1.58743,8.09885,4.77799,-0.0129881,31.9253
11353,18885.6,-0.745311,3.17573,2.32262,1.62196,8.10891,4.88472,-0.0142808,31.7497
11554,19087.6,0.198916,3.32593,2.32547,1.65803,8.11848,4.99658,-0.0115108,31.9833
11756,19288.7,-1.03589,3.12403,2.33025,1.6867,8.13447,5.08334,-0.0198207,31.9394
11957,19490.7,-0.97747,3.12988,2.33325,1.72172,8.1445,5.19111,-0.0188359,31.868
12158,19692.7,0.0129631,3.29423,2.33656,1.75671,8.15561,5.29936,-0.0139115,31.9424
12360,19893.7,-2.02237,2.96183,2.34086,1.78738,8.16998,5.39196,-0.0152657,31.8172
12561,20095.6,-1.42169,3.0557,2.34386,1.82149,8.17997,5.49695,-0.0193899,31.8408
12762,20297.6,0.035315,3.29392,2.34733,1.85547,8.1916,5.6018,-0.00486288,31.7664
12964,20498.7,-2.13564,2.93167,2.3515,1.88855,8.20551,5.70129,-0.004924393,31.7664
13165,20700.7,-0.569689,3.17727,2.35451,1.92145,8.21552,5.80273,0.005232191,31.7022
13366,20902.6,2.75712e-06,3.28099,2.35797,1.95425,8.22709,5.90369,0.0,31.7326
13568,21103.8,-0.718639,3.13849,2.36213,1.98909,8.24093,6.00818,0.0456739,31.7124
13769,21305.7,-3.02971,2.78455,2.36513,2.02144,8.25089,6.10767,-0.0602624,31.6785
13970,21507.7,0.000378419,3.26376,2.36859,2.05298,8.26241,6.20434,6.1512e-05,31.6957
14172,21708.7,0.319503,3.28376,2.37302,2.08802,8.27704,6.30867,0.0169277,31.7871
14373,21910.7,-0.226897,3.1902,2.3759,2.12203,8.28656,6.41193,0.02573,31.7567
14574,22112.8,-1.2996,3.03939,2.37921,2.15219,8.2975,6.50426,-0.0405033,31.8141
14776,22313.7,0.333966,3.26684,2.38392,2.18672,8.31296,6.60622,0.00473976,31.9693
14977,22515.7,-0.975592,3.04739,2.38653,2.2215,8.32152,6.71099,-0.0103413,31.9456
15178,22717.7,-0.318934,3.15265,2.38985,2.25243,8.33236,6.80464,0.0398878,31.9591
15380,22918.8,0.311051,3.23267,2.39489,2.28552,8.34877,6.90116,0.000861788,32.1451
15581,23120.8,-0.313863,3.11664,2.39717,2.32075,8.35617,7.00602,0.008002186,32.135
15782,23322.7,0.402149,3.22559,2.40067,2.35125,8.36748,7.09716,0.00880237,32.1755
15984,23523.8,0.283628,3.11787,2.40584,2.38425,8.38388,7.19086,0.000738668,32.2198
16185,23725.8,-0.621906,2.76609,2.40782,2.4201,8.39001,7.2907,-0.000677109,32.2807
16387,24625.6,1.09994,3.43858,2.5616,2.44113,8.90061,7.34359,6.1512e-05,32.2837
16588,25630.8,1.10013,3.51059,2.86873,2.44113,9.97186,7.34359,6.15597e-05,31.9963
16789,26636,1.09994,3.54322,3.17589,2.44113,11.0547,7.34359,0.0,32.6149
16990,27639.2,0.248128,3.60016,3.43236,2.44113,11.9703,7.34359,0.0,32.7025
17215,28473.6,-0.979724,3.27176,3.45415,2.45225,12.0487,7.37945,-0.0235756,32.216
17416,28675.3,-3.84922,2.72915,3.45843,2.51022,12.064,7.55374,-0.0924558,31.9863
17617,28877.1,-0.429003,3.25114,3.47027,2.55324,12.1055,7.68168,-0.0143424,32.1316
17818,29079.1,0.000378419,3.33147,3.47804,2.57796,12.1327,7.75961,-0.0181588,31.8712
18019,29281,-1.1884,3.13634,3.48304,2.61263,12.1499,7.86778,-0.0129881,31.9389
18220,29482.8,1.12098,3.49644,3.48835,2.63732,12.1682,7.9449,0.0223445,32.135
18421,29684.7,0.121342,3.33516,3.49273,2.66209,12.1833,8.02195,0.0152657,32.047
18623,29886.6,-1.3351,3.10679,3.49766,2.69006,12.2004,8.10878,-0.0148348,31.8712
18824,30088.3,0.964891,3.45673,3.50518,2.74994,12.2266,8.28423,-0.0144655,31.9625
19025,30290.2,-0.350302,3.25268,3.51672,2.78632,12.2669,8.39253,0.0110799,31.922
19226,30492.2,0.39426,3.3524,3.52146,2.81342,12.2833,8.47688,0.0433348,31.8273
19427,30694,-0.277612,3.25114,3.52697,2.84575,12.3021,8.57692,-0.0259147,31.9016
19628,30895.9,-1.21301,3.09633,3.53233,2.87287,12.3204,8.66038,-0.002646875,32.2938
19829,31097.9,0.000378419,3.29207,3.53836,2.89673,12.3411,8.73366,0.0,32.1991
20031,31299.9,0.000190588,3.29361,3.54356,2.92097,12.3591,8.80814,6.15597e-05,32.0504
20232,31501.6,-2.67997,2.86981,3.55142,2.98328,12.386,8.98905,-0.0238834,32.02
20433,31703.4,0.000190588,3.28715,3.56134,3.02294,12.4206,9.10719,6.15597e-05,31.8036
20634,31905.2,1.13037,3.4552,3.56695,3.05092,12.4398,9.19333,0.003754854,31.7157
20835,32106.9,0.000190588,3.28653,3.57186,3.07998,12.4564,9.28343,-6.15597e-05,31.8814
21036,32308.7,0.000190588,3.2853,3.57716,3.10592,12.4744,9.36289,0.0,31.9456
21237,32510.5,0.418866,3.34409,3.58229,3.13154,12.492,9.44089,0.00289311,32.0639
21439,32712.3,-2.5776,2.87812,3.58829,3.15927,12.5128,9.52505,-0.04942875,31.9726
21640,32914.2,1.02368,3.43057,3.59788,3.22387,12.5456,9.71192,-0.008125258,31.7191
21841,33115.8,-1.00865,3.10833,3.60471,3.25732,12.5692,9.81121,-0.012865,31.8273
22042,33317.7,-0.404398,3.18774,3.61093,3.28928,12.5904,9.9085,-0.004431963,31.8543
22243,33519.4,-0.316493,3.19943,3.61588,3.31856,12.607,9.99839,0.000123072,32.0774
22444,33721.3,-0.94028,3.10402,3.62173,3.34104,12.6268,10.0662,-0.0267765,31.9726
22646,33922.3,-0.895951,3.09879,3.62589,3.36444,12.6409,10.137,0.0343477,31.9016
22847,34124.4,-1.19329,3.00707,3.63159,3.41568,12.6604,10.2844,0.0457355,32.0335
23048,34326.3,0.000378419,3.22159,3.64345,3.46167,12.7006,10.4175,0.000123119,31.8678
23249,34528.1,2.75712e-06,3.21605,3.64966,3.49156,12.7217,10.5059,0.000123119,31.8577
23450,34730,0.25827,3.23514,3.65472,3.52523,12.7385,10.6063,0.00036931,32.02
23651,34931.8,-0.000185074,3.19574,3.66047,3.55052,12.7575,10.6826,6.1512e-05,32.5978
23852,35133.9,0.000378419,3.18681,3.6659,3.57654,12.7755,10.7596,-0.0212981,32.3613
24054,35335.6,-0.219384,3.13142,3.67066,3.60254,12.7913,10.836,-0.000246239,32.3174
24255,35537.5,-0.823261,2.87996,3.67494,3.65975,12.8058,10.994,-0.0150195,32.3005
24456,35739.4,0.0535346,2.78363,3.68674,3.7036,12.8429,11.1068,0.002646875,32.1383
24596,35879,-0.000185074,2.16562,3.69131,3.72165,12.8564,11.1522,0.0,31.9016